"SPL Horizontal"																																																																							
"On-Axis"		"10°"		"-10°"		"20°"		"-20°"		"30°"		"-30°"		"40°"		"-40°"		"50°"		"-50°"		"60°"		"-60°"		"70°"		"-70°"		"80°"		"-80°"		"90°"		"-90°"		"100°"		"-100°"		"110°"		"-110°"		"120°"		"-120°"		"130°"		"-130°"		"140°"		"-140°"		"150°"		"-150°"		"160°"		"-160°"		"170°"		"-170°"		"180°"	
"Frequency [Hz]"	"Sound Pessure Level [dB]  / [2.83V 1m] "	"Frequency [Hz]"	"Sound Pessure Level [dB]  / [2.83V 1m] "	"Frequency [Hz]"	"Sound Pessure Level [dB]  / [2.83V 1m] "	"Frequency [Hz]"	"Sound Pessure Level [dB]  / [2.83V 1m] "	"Frequency [Hz]"	"Sound Pessure Level [dB]  / [2.83V 1m] "	"Frequency [Hz]"	"Sound Pessure Level [dB]  / [2.83V 1m] "	"Frequency [Hz]"	"Sound Pessure Level [dB]  / [2.83V 1m] "	"Frequency [Hz]"	"Sound Pessure Level [dB]  / [2.83V 1m] "	"Frequency [Hz]"	"Sound Pessure Level [dB]  / [2.83V 1m] "	"Frequency [Hz]"	"Sound Pessure Level [dB]  / [2.83V 1m] "	"Frequency [Hz]"	"Sound Pessure Level [dB]  / [2.83V 1m] "	"Frequency [Hz]"	"Sound Pessure Level [dB]  / [2.83V 1m] "	"Frequency [Hz]"	"Sound Pessure Level [dB]  / [2.83V 1m] "	"Frequency [Hz]"	"Sound Pessure Level [dB]  / [2.83V 1m] "	"Frequency [Hz]"	"Sound Pessure Level [dB]  / [2.83V 1m] "	"Frequency [Hz]"	"Sound Pessure Level [dB]  / [2.83V 1m] "	"Frequency [Hz]"	"Sound Pessure Level [dB]  / [2.83V 1m] "	"Frequency [Hz]"	"Sound Pessure Level [dB]  / [2.83V 1m] "	"Frequency [Hz]"	"Sound Pessure Level [dB]  / [2.83V 1m] "	"Frequency [Hz]"	"Sound Pessure Level [dB]  / [2.83V 1m] "	"Frequency [Hz]"	"Sound Pessure Level [dB]  / [2.83V 1m] "	"Frequency [Hz]"	"Sound Pessure Level [dB]  / [2.83V 1m] "	"Frequency [Hz]"	"Sound Pessure Level [dB]  / [2.83V 1m] "	"Frequency [Hz]"	"Sound Pessure Level [dB]  / [2.83V 1m] "	"Frequency [Hz]"	"Sound Pessure Level [dB]  / [2.83V 1m] "	"Frequency [Hz]"	"Sound Pessure Level [dB]  / [2.83V 1m] "	"Frequency [Hz]"	"Sound Pessure Level [dB]  / [2.83V 1m] "	"Frequency [Hz]"	"Sound Pessure Level [dB]  / [2.83V 1m] "	"Frequency [Hz]"	"Sound Pessure Level [dB]  / [2.83V 1m] "	"Frequency [Hz]"	"Sound Pessure Level [dB]  / [2.83V 1m] "	"Frequency [Hz]"	"Sound Pessure Level [dB]  / [2.83V 1m] "	"Frequency [Hz]"	"Sound Pessure Level [dB]  / [2.83V 1m] "	"Frequency [Hz]"	"Sound Pessure Level [dB]  / [2.83V 1m] "	"Frequency [Hz]"	"Sound Pessure Level [dB]  / [2.83V 1m] "	"Frequency [Hz]"	"Sound Pessure Level [dB]  / [2.83V 1m] "	"Frequency [Hz]"	"Sound Pessure Level [dB]  / [2.83V 1m] "
20.5078	47.496	20.5078	47.2682	20.5078	47.4798	20.5078	46.7944	20.5078	47.2247	20.5078	46.0879	20.5078	46.7416	20.5078	45.2201	20.5078	46.0664	20.5078	44.4198	20.5078	45.3084	20.5078	44.1706	20.5078	44.735	20.5078	44.9301	20.5078	44.7774	20.5078	46.5375	20.5078	45.698	20.5078	48.4457	20.5078	47.2589	20.5078	50.2857	20.5078	49.0267	20.5078	51.9162	20.5078	50.724	20.5078	53.3014	20.5078	52.2374	20.5078	54.441	20.5078	53.5325	20.5078	55.3428	20.5078	54.6038	20.5078	56.0149	20.5078	55.4539	20.5078	56.4634	20.5078	56.0862	20.5078	56.6926	20.5078	56.503	20.5078	56.7053
23.4375	51.1612	23.4375	51.0139	23.4375	51.1513	23.4375	50.7288	23.4375	50.9873	23.4375	50.3606	23.4375	50.6955	23.4375	50.0242	23.4375	50.3397	23.4375	49.9107	23.4375	50.0444	23.4375	50.2336	23.4375	50.0017	23.4375	51.078	23.4375	50.4033	23.4375	52.3192	23.4375	51.2994	23.4375	53.7368	23.4375	52.5512	23.4375	55.1519	23.4375	53.9504	23.4375	56.4612	23.4375	55.3353	23.4375	57.6145	23.4375	56.6128	23.4375	58.5897	23.4375	57.7366	23.4375	59.3769	23.4375	58.6854	23.4375	59.972	23.4375	59.4489	23.4375	60.3728	23.4375	60.0222	23.4375	60.5783	23.4375	60.4025	23.4375	60.5881
26.3672	54.6098	26.3672	54.4661	26.3672	54.5914	26.3672	54.1703	26.3672	54.4122	26.3672	53.7526	26.3672	54.0867	26.3672	53.2827	26.3672	53.6523	26.3672	52.8981	26.3672	53.1918	26.3672	52.8079	26.3672	52.8593	26.3672	53.2059	26.3672	52.8697	26.3672	54.113	26.3672	53.3878	26.3672	55.3548	26.3672	54.3848	26.3672	56.7099	26.3672	55.6641	26.3672	58.0202	26.3672	57.0156	26.3672	59.2004	26.3672	58.2996	26.3672	60.2102	26.3672	59.443	26.3672	61.0317	26.3672	60.4113	26.3672	61.6572	26.3672	61.1894	26.3672	62.0831	26.3672	61.7704	26.3672	62.3079	26.3672	62.1513	26.3672	62.3306
29.2969	57.4534	29.2969	57.3597	29.2969	57.4307	29.2969	57.164	29.2969	57.294	29.2969	56.9032	29.2969	57.0632	29.2969	56.6475	29.2969	56.7835	29.2969	56.5091	29.2969	56.5371	29.2969	56.6249	29.2969	56.4476	29.2969	57.0956	29.2969	56.6514	29.2969	57.9155	29.2969	57.2254	29.2969	58.975	29.2969	58.1302	29.2969	60.1321	29.2969	59.2372	29.2969	61.2712	29.2969	60.4065	29.2969	62.3175	29.2969	61.5332	29.2969	63.228	29.2969	62.5524	29.2969	63.9785	29.2969	63.4272	29.2969	64.5558	29.2969	64.1373	29.2969	64.9521	29.2969	64.671	29.2969	65.163	29.2969	65.0219	29.2969	65.1863
32.2266	60.2501	32.2266	60.1882	32.2266	60.2316	32.2266	60.0614	32.2266	60.1346	32.2266	59.9057	32.2266	59.979	32.2266	59.7822	32.2266	59.8065	32.2266	59.7771	32.2266	59.6858	32.2266	59.9822	32.2266	59.7088	32.2266	60.4569	32.2266	59.9663	32.2266	61.1915	32.2266	60.5051	32.2266	62.112	32.2266	61.2975	32.2266	63.1183	32.2266	62.2567	32.2266	64.1209	32.2266	63.2806	32.2266	65.0546	32.2266	64.2833	32.2266	65.8765	32.2266	65.2049	32.2266	66.5598	32.2266	66.0069	32.2266	67.0878	32.2266	66.6652	32.2266	67.4502	32.2266	67.1651	32.2266	67.6408	32.2266	67.4973	32.2266	67.6566
35.1563	64.1328	35.1563	64.0904	35.1563	64.1239	35.1563	64.0074	35.1563	64.0655	35.1563	63.9081	35.1563	63.9721	35.1563	63.8321	35.1563	63.8723	35.1563	63.8332	35.1563	63.8099	35.1563	63.9705	35.1563	63.841	35.1563	64.2895	35.1563	64.0228	35.1563	64.802	35.1563	64.3931	35.1563	65.4778	35.1563	64.9524	35.1563	66.257	35.1563	65.6611	35.1563	67.0711	35.1563	66.4554	35.1563	67.8592	35.1563	67.2682	35.1563	68.5741	35.1563	68.042	35.1563	69.1822	35.1563	68.7333	35.1563	69.6604	35.1563	69.3115	35.1563	69.9935	35.1563	69.7555	35.1563	70.1722	35.1563	70.0516	35.1563	70.1917
38.0859	67.1689	38.0859	67.1466	38.0859	67.1578	38.0859	67.0995	38.0859	67.1148	38.0859	67.0472	38.0859	67.0521	38.0859	67.0203	38.0859	66.9927	38.0859	67.0587	38.0859	66.9709	38.0859	67.2048	38.0859	67.0287	38.0859	67.4921	38.0859	67.2078	38.0859	67.9314	38.0859	67.5367	38.0859	68.5049	38.0859	68.0183	38.0859	69.1711	38.0859	68.6264	38.0859	69.8774	38.0859	69.3146	38.0859	70.5721	38.0859	70.0287	38.0859	71.2115	38.0859	70.7187	38.0859	71.7618	38.0859	71.3433	38.0859	72.1984	38.0859	71.8713	38.0859	72.5041	38.0859	72.2801	38.0859	72.6682	38.0859	72.5545	38.0859	72.6852
41.0156	70.4512	41.0156	70.4412	41.0156	70.4437	41.0156	70.4204	41.0156	70.4193	41.0156	70.4035	41.0156	70.3866	41.0156	70.4126	41.0156	70.362	41.0156	70.4751	41.0156	70.369	41.0156	70.6197	41.0156	70.4365	41.0156	70.869	41.0156	70.593	41.0156	71.2318	41.0156	70.8599	41.0156	71.6988	41.0156	71.2433	41.0156	72.2431	41.0156	71.7301	41.0156	72.8272	41.0156	72.2905	41.0156	73.4104	41.0156	72.885	41.0156	73.9548	41.0156	73.4722	41.0156	74.4286	41.0156	74.0145	41.0156	74.8071	41.0156	74.4808	41.0156	75.0722	41.0156	74.8476	41.0156	75.2122	41.0156	75.0978	41.0156	75.2209
43.9453	73.0967	43.9453	73.0933	43.9453	73.0884	43.9453	73.0835	43.9453	73.0696	43.9453	73.0782	43.9453	73.0473	43.9453	73.0941	43.9453	73.0346	43.9453	73.1524	43.9453	73.0501	43.9453	73.2751	43.9453	73.1161	43.9453	73.481	43.9453	73.255	43.9453	73.7799	43.9453	73.4839	43.9453	74.1678	43.9453	73.8093	43.9453	74.6271	43.9453	74.2231	43.9453	75.129	43.9453	74.7035	43.9453	75.6393	43.9453	75.2189	43.9453	76.1239	43.9453	75.734	43.9453	76.5522	43.9453	76.2145	43.9453	76.8989	43.9453	76.631	43.9453	77.1452	43.9453	76.9598	43.9453	77.2783	43.9453	77.1835	43.9453	77.2914
46.875	75.5132	46.875	75.5171	46.875	75.5074	46.875	75.5231	46.875	75.5005	46.875	75.5396	46.875	75.4977	46.875	75.5787	46.875	75.5086	46.875	75.6557	46.875	75.5468	46.875	75.7862	46.875	75.628	46.875	75.9832	46.875	75.768	46.875	76.2532	46.875	75.9788	46.875	76.5935	46.875	76.2654	46.875	76.9912	46.875	76.6225	46.875	77.4245	46.875	77.0347	46.875	77.8664	46.875	77.4784	46.875	78.2883	46.875	77.9252	46.875	78.6633	46.875	78.3463	46.875	78.9681	46.875	78.7148	46.875	79.1848	46.875	79.0085	46.875	79.3009	46.875	79.2105	46.875	79.3097
49.8047	77.2146	49.8047	77.2245	49.8047	77.2092	49.8047	77.2418	49.8047	77.2088	49.8047	77.2726	49.8047	77.2174	49.8047	77.326	49.8047	77.2424	49.8047	77.4128	49.8047	77.2937	49.8047	77.5443	49.8047	77.3828	49.8047	77.7298	49.8047	77.521	49.8047	77.974	49.8047	77.7169	49.8047	78.2749	49.8047	77.9742	49.8047	78.6228	49.8047	78.289	49.8047	79.0011	49.8047	78.6498	49.8047	79.3878	49.8047	79.0379	49.8047	79.7588	49.8047	79.4304	49.8047	80.0904	49.8047	79.8025	49.8047	80.3613	49.8047	80.1302	49.8047	80.5545	49.8047	80.3931	49.8047	80.6578	49.8047	80.575	49.8047	80.6649
52.7344	78.5327	52.7344	78.5453	52.7344	78.529	52.7344	78.5689	52.7344	78.5347	52.7344	78.6075	52.7344	78.5526	52.7344	78.6676	52.7344	78.588	52.7344	78.7567	52.7344	78.6478	52.7344	78.8826	52.7344	78.74	52.7344	79.0518	52.7344	78.8723	52.7344	79.2676	52.7344	79.0508	52.7344	79.5289	52.7344	79.2779	52.7344	79.8288	52.7344	79.551	52.7344	80.1545	52.7344	79.8615	52.7344	80.4887	52.7344	80.1954	52.7344	80.8113	52.7344	80.534	52.7344	81.1017	52.7344	80.8567	52.7344	81.3406	52.7344	81.1426	52.7344	81.512	52.7344	81.3731	52.7344	81.6045	52.7344	81.5329	52.7344	81.6116
55.6641	79.4607	55.6641	79.4768	55.6641	79.4569	55.6641	79.5064	55.6641	79.4657	55.6641	79.5526	55.6641	79.489	55.6641	79.6194	55.6641	79.5304	55.6641	79.7118	55.6641	79.5944	55.6641	79.835	55.6641	79.6864	55.6641	79.9931	55.6641	79.8116	55.6641	80.1882	55.6641	79.9742	55.6641	80.419	55.6641	80.1757	55.6641	80.6802	55.6641	80.4141	55.6641	80.9619	55.6641	80.6832	55.6641	81.2504	55.6641	80.972	55.6641	81.529	55.6641	81.2658	55.6641	81.7802	55.6641	81.5472	55.6641	81.987	55.6641	81.7984	55.6641	82.135	55.6641	82.0024	55.6641	82.2138	55.6641	82.1454	55.6641	82.2174
58.5938	80.1242	58.5938	80.1408	58.5938	80.122	58.5938	80.1725	58.5938	80.1344	58.5938	80.2211	58.5938	80.1628	58.5938	80.289	58.5938	80.2093	58.5938	80.3795	58.5938	80.2769	58.5938	80.4956	58.5938	80.369	58.5938	80.64	58.5938	80.4887	58.5938	80.8138	58.5938	80.6385	58.5938	81.0161	58.5938	80.819	58.5938	81.2428	58.5938	81.0287	58.5938	81.4863	58.5938	81.2625	58.5938	81.7357	58.5938	81.5119	58.5938	81.9776	58.5938	81.7652	58.5938	82.1968	58.5938	82.0079	58.5938	82.3786	58.5938	82.2249	58.5938	82.5098	58.5938	82.4013	58.5938	82.5807	58.5938	82.5246	58.5938	82.5858
61.5234	80.6572	61.5234	80.6741	61.5234	80.6565	61.5234	80.7077	61.5234	80.6721	61.5234	80.7586	61.5234	80.7048	61.5234	80.8283	61.5234	80.7556	61.5234	80.9182	61.5234	80.8261	61.5234	81.0299	61.5234	80.9179	61.5234	81.1646	61.5234	81.0326	61.5234	81.3226	61.5234	81.1712	61.5234	81.5027	61.5234	81.334	61.5234	81.7017	61.5234	81.5191	61.5234	81.9136	61.5234	81.7229	61.5234	82.1299	61.5234	81.9386	61.5234	82.3394	61.5234	82.1571	61.5234	82.5295	61.5234	82.3666	61.5234	82.6876	61.5234	82.5544	61.5234	82.8019	61.5234	82.7075	61.5234	82.8638	61.5234	82.8148	61.5234	82.8683
64.4531	81.1213	64.4531	81.1387	64.4531	81.1214	64.4531	81.1737	64.4531	81.1392	64.4531	81.2264	64.4531	81.1747	64.4531	81.2971	64.4531	81.2283	64.4531	81.3859	64.4531	81.3003	64.4531	81.4933	64.4531	81.3911	64.4531	81.6192	64.4531	81.5009	64.4531	81.7632	64.4531	81.6297	64.4531	81.924	64.4531	81.777	64.4531	82.0988	64.4531	81.9411	64.4531	82.283	64.4531	82.1191	64.4531	82.4697	64.4531	82.3057	64.4531	82.6502	64.4531	82.4937	64.4531	82.814	64.4531	82.6738	64.4531	82.9503	64.4531	82.8353	64.4531	83.0491	64.4531	82.9673	64.4531	83.1026	64.4531	83.06	64.4531	83.1064
67.3828	81.6084	67.3828	81.6264	67.3828	81.609	67.3828	81.6629	67.3828	81.6282	67.3828	81.7173	67.3828	81.6659	67.3828	81.7889	67.3828	81.7216	67.3828	81.877	67.3828	81.7945	67.3828	81.9807	67.3828	81.884	67.3828	82.0991	67.3828	81.9892	67.3828	82.231	67.3828	82.1093	67.3828	82.3748	67.3828	82.2429	67.3828	82.528	67.3828	82.3885	67.3828	82.6872	67.3828	82.5434	67.3828	82.8469	67.3828	82.7039	67.3828	83.0004	67.3828	82.8643	67.3828	83.1393	67.3828	83.0175	67.3828	83.2547	67.3828	83.1548	67.3828	83.3383	67.3828	83.2672	67.3828	83.3834	67.3828	83.3464	67.3828	83.3862
70.3125	82.1361	70.3125	82.1513	70.3125	82.1401	70.3125	82.1851	70.3125	82.1631	70.3125	82.2368	70.3125	82.2046	70.3125	82.305	70.3125	82.2633	70.3125	82.3883	70.3125	82.338	70.3125	82.4851	70.3125	82.427	70.3125	82.5937	70.3125	82.5286	70.3125	82.7125	70.3125	82.6412	70.3125	82.8398	70.3125	82.763	70.3125	82.9736	70.3125	82.8923	70.3125	83.1111	70.3125	83.0268	70.3125	83.2483	70.3125	83.1636	70.3125	83.3801	70.3125	83.2984	70.3125	83.5	70.3125	83.4256	70.3125	83.6005	70.3125	83.5387	70.3125	83.6747	70.3125	83.6302	70.3125	83.7167	70.3125	83.6934	70.3125	83.7231
73.2422	82.6368	73.2422	82.6502	73.2422	82.6435	73.2422	82.6833	73.2422	82.6701	73.2422	82.7347	73.2422	82.7158	73.2422	82.8024	73.2422	82.7787	73.2422	82.8843	73.2422	82.8567	73.2422	82.9779	73.2422	82.9472	73.2422	83.0808	73.2422	83.0476	73.2422	83.1908	73.2422	83.1551	73.2422	83.3058	73.2422	83.2676	73.2422	83.4238	73.2422	83.3828	73.2422	83.5425	73.2422	83.4989	73.2422	83.6591	73.2422	83.6136	73.2422	83.7699	73.2422	83.7241	73.2422	83.8699	73.2422	83.8266	73.2422	83.9538	73.2422	83.9166	73.2422	84.0161	73.2422	83.9886	73.2422	84.0522	73.2422	84.0376	73.2422	84.0595
76.1719	83.1204	76.1719	83.1358	76.1719	83.125	76.1719	83.1704	76.1719	83.1493	76.1719	83.2226	76.1719	83.192	76.1719	83.2901	76.1719	83.2511	76.1719	83.3699	76.1719	83.3238	76.1719	83.4591	76.1719	83.4071	76.1719	83.5544	76.1719	83.4977	76.1719	83.6533	76.1719	83.5927	76.1719	83.7533	76.1719	83.6896	76.1719	83.8525	76.1719	83.7864	76.1719	83.9492	76.1719	83.8816	76.1719	84.0415	76.1719	83.974	76.1719	84.1269	76.1719	84.0619	76.1719	84.2025	76.1719	84.1432	76.1719	84.2645	76.1719	84.215	76.1719	84.3092	76.1719	84.2733	76.1719	84.3334	76.1719	84.3145	76.1719	84.3351
79.1016	83.4685	79.1016	83.4832	79.1016	83.4743	79.1016	83.5175	79.1016	83.5001	79.1016	83.5696	79.1016	83.5445	79.1016	83.6368	79.1016	83.6051	79.1016	83.7158	79.1016	83.6788	79.1016	83.8029	79.1016	83.7618	79.1016	83.8948	79.1016	83.8506	79.1016	83.9881	79.1016	83.9417	79.1016	84.0803	79.1016	84.0322	79.1016	84.1693	79.1016	84.1199	79.1016	84.2535	79.1016	84.2033	79.1016	84.3317	79.1016	84.2816	79.1016	84.4024	79.1016	84.3539	79.1016	84.4638	79.1016	84.4193	79.1016	84.5135	79.1016	84.476	79.1016	84.549	79.1016	84.5217	79.1016	84.5682	79.1016	84.5537	79.1016	84.5697
82.0313	83.8499	82.0313	83.8712	82.0313	83.8491	82.0313	83.9121	82.0313	83.8687	82.0313	83.9701	82.0313	83.9072	82.0313	84.0421	82.0313	83.9621	82.0313	84.124	82.0313	84.0299	82.0313	84.2117	82.0313	84.1066	82.0313	84.3008	82.0313	84.1882	82.0313	84.3875	82.0313	84.2707	82.0313	84.4689	82.0313	84.3508	82.0313	84.5426	82.0313	84.4262	82.0313	84.6075	82.0313	84.4954	82.0313	84.6631	82.0313	84.5579	82.0313	84.709	82.0313	84.6137	82.0313	84.7454	82.0313	84.6631	82.0313	84.7717	82.0313	84.7059	82.0313	84.7876	82.0313	84.7414	82.0313	84.7923	82.0313	84.7685	82.0313	84.7858
84.9609	84.2276	84.9609	84.2497	84.9609	84.223	84.9609	84.2881	84.9609	84.2358	84.9609	84.3403	84.9609	84.2648	84.9609	84.4029	84.9609	84.3075	84.9609	84.4716	84.9609	84.3603	84.9609	84.5421	84.9609	84.4194	84.9609	84.6101	84.9609	84.4805	84.9609	84.6718	84.9609	84.5397	84.9609	84.7244	84.9609	84.5938	84.9609	84.7662	84.9609	84.6406	84.9609	84.7968	84.9609	84.6792	84.9609	84.8171	84.9609	84.7098	84.9609	84.8284	84.9609	84.7338	84.9609	84.8327	84.9609	84.7529	84.9609	84.8316	84.9609	84.7691	84.9609	84.8267	84.9609	84.7834	84.9609	84.8187	84.9609	84.7966	84.9609	84.8085
87.8906	84.5807	87.8906	84.6003	87.8906	84.5743	87.8906	84.6318	87.8906	84.5808	87.8906	84.6728	87.8906	84.5991	87.8906	84.7198	87.8906	84.6267	87.8906	84.769	87.8906	84.6603	87.8906	84.8159	87.8906	84.6961	87.8906	84.8566	87.8906	84.7304	87.8906	84.8878	87.8906	84.7596	87.8906	84.9072	87.8906	84.7813	87.8906	84.9141	87.8906	84.7941	87.8906	84.9092	87.8906	84.7981	87.8906	84.8948	87.8906	84.7949	87.8906	84.8738	87.8906	84.7871	87.8906	84.8498	87.8906	84.7778	87.8906	84.8259	87.8906	84.7701	87.8906	84.8043	87.8906	84.7662	87.8906	84.7868	87.8906	84.7674	87.8906	84.7744
90.8203	84.2753	90.8203	84.2809	90.8203	84.2946	90.8203	84.3103	90.8203	84.3381	90.8203	84.3612	90.8203	84.4036	90.8203	84.4297	90.8203	84.4874	90.8203	84.5113	90.8203	84.5845	90.8203	84.6009	90.8203	84.6896	90.8203	84.6934	90.8203	84.7969	90.8203	84.7844	90.8203	84.9008	90.8203	84.8702	90.8203	84.9966	90.8203	84.9483	90.8203	85.0808	90.8203	85.0176	90.8203	85.1512	90.8203	85.0779	90.8203	85.2068	90.8203	85.1299	90.8203	85.2481	90.8203	85.1744	90.8203	85.2763	90.8203	85.2123	90.8203	85.2929	90.8203	85.2437	90.8203	85.2995	90.8203	85.2686	90.8203	85.2971	90.8203	85.2866
93.75	84.5651	93.75	84.5753	93.75	84.5785	93.75	84.6081	93.75	84.6148	93.75	84.6611	93.75	84.6715	93.75	84.7304	93.75	84.745	93.75	84.811	93.75	84.8301	93.75	84.8972	93.75	84.9213	93.75	84.9833	93.75	85.0124	93.75	85.0638	93.75	85.0978	93.75	85.1344	93.75	85.1726	93.75	85.1917	93.75	85.2331	93.75	85.2344	93.75	85.2772	93.75	85.2626	93.75	85.3049	93.75	85.2783	93.75	85.3178	93.75	85.2846	93.75	85.3191	93.75	85.2852	93.75	85.3128	93.75	85.2839	93.75	85.3031	93.75	85.2837	93.75	85.2936	93.75	85.2868
96.6797	84.9959	96.6797	85.0199	96.6797	84.9865	96.6797	85.0571	96.6797	84.9917	96.6797	85.1044	96.6797	85.0101	96.6797	85.1577	96.6797	85.0387	96.6797	85.2118	96.6797	85.0735	96.6797	85.2612	96.6797	85.1095	96.6797	85.3006	96.6797	85.1418	96.6797	85.3252	96.6797	85.1655	96.6797	85.3316	96.6797	85.1767	96.6797	85.318	96.6797	85.173	96.6797	85.2849	96.6797	85.1537	96.6797	85.2351	96.6797	85.1206	96.6797	85.1736	96.6797	85.0776	96.6797	85.107	96.6797	85.0303	96.6797	85.0428	96.6797	84.9856	96.6797	84.9882	96.6797	84.9503	96.6797	84.9491	96.6797	84.9302	96.6797	84.9293
102.539	84.7514	102.539	84.7709	102.539	84.7509	102.539	84.8079	102.539	84.7693	102.539	84.8591	102.539	84.8047	102.539	84.9201	102.539	84.8538	102.539	84.9852	102.539	84.9118	102.539	85.0485	102.539	84.9729	102.539	85.1038	102.539	85.0311	102.539	85.1458	102.539	85.0805	102.539	85.1703	102.539	85.1159	102.539	85.175	102.539	85.1339	102.539	85.1599	102.539	85.1328	102.539	85.1275	102.539	85.1136	102.539	85.0826	102.539	85.0796	102.539	85.0319	102.539	85.0363	102.539	84.9828	102.539	84.9908	102.539	84.9426	102.539	84.9504	102.539	84.9171	102.539	84.9218	102.539	84.91
105.469	84.7282	105.469	84.7433	105.469	84.7311	105.469	84.7751	105.469	84.7517	105.469	84.8206	105.469	84.788	105.469	84.8755	105.469	84.8367	105.469	84.9347	105.469	84.893	105.469	84.992	105.469	84.9515	105.469	85.0414	105.469	85.006	105.469	85.0775	105.469	85.0508	105.469	85.096	105.469	85.0808	105.469	85.0946	105.469	85.0924	105.469	85.0731	105.469	85.0839	105.469	85.0343	105.469	85.0563	105.469	84.983	105.469	85.013	105.469	84.9266	105.469	84.9597	105.469	84.873	105.469	84.9041	105.469	84.8303	105.469	84.8544	105.469	84.8048	105.469	84.8179	105.469	84.8005
108.398	84.8228	108.398	84.8338	108.398	84.828	108.398	84.8599	108.398	84.8493	108.398	84.8986	108.398	84.8845	108.398	84.9458	108.398	84.9304	108.398	84.9965	108.398	84.9825	108.398	85.045	108.398	85.0351	108.398	85.0855	108.398	85.0826	108.398	85.1126	108.398	85.1189	108.398	85.122	108.398	85.1392	108.398	85.1114	108.398	85.1398	108.398	85.0807	108.398	85.1192	108.398	85.0324	108.398	85.0787	108.398	84.9719	108.398	85.0221	108.398	84.9067	108.398	84.9559	108.398	84.8455	108.398	84.8884	108.398	84.7969	108.398	84.8288	108.398	84.7683	108.398	84.7853	108.398	84.7642
