"SPL Vertical"
"On-Axis"		"10°"		"-10°"		"20°"		"-20°"		"30°"		"-30°"		"40°"		"-40°"		"50°"		"-50°"		"60°"		"-60°"		"70°"		"-70°"		"80°"		"-80°"		"90°"		"-90°"		"100°"		"-100°"		"110°"		"-110°"		"120°"		"-120°"		"130°"		"-130°"		"140°"		"-140°"		"150°"		"-150°"		"160°"		"-160°"		"170°"		"-170°"		"180°"
"Frequency / Hz"	"Sound Pressure Level / dB (re 20 µPa/V)  [2.83  V @ 1. m]"	"Frequency / Hz"	"Sound Pressure Level / dB (re 20 µPa/V)  [2.83  V @ 1. m]"	"Frequency / Hz"	"Sound Pressure Level / dB (re 20 µPa/V)  [2.83  V @ 1. m]"	"Frequency / Hz"	"Sound Pressure Level / dB (re 20 µPa/V)  [2.83  V @ 1. m]"	"Frequency / Hz"	"Sound Pressure Level / dB (re 20 µPa/V)  [2.83  V @ 1. m]"	"Frequency / Hz"	"Sound Pressure Level / dB (re 20 µPa/V)  [2.83  V @ 1. m]"	"Frequency / Hz"	"Sound Pressure Level / dB (re 20 µPa/V)  [2.83  V @ 1. m]"	"Frequency / Hz"	"Sound Pressure Level / dB (re 20 µPa/V)  [2.83  V @ 1. m]"	"Frequency / Hz"	"Sound Pressure Level / dB (re 20 µPa/V)  [2.83  V @ 1. m]"	"Frequency / Hz"	"Sound Pressure Level / dB (re 20 µPa/V)  [2.83  V @ 1. m]"	"Frequency / Hz"	"Sound Pressure Level / dB (re 20 µPa/V)  [2.83  V @ 1. m]"	"Frequency / Hz"	"Sound Pressure Level / dB (re 20 µPa/V)  [2.83  V @ 1. m]"	"Frequency / Hz"	"Sound Pressure Level / dB (re 20 µPa/V)  [2.83  V @ 1. m]"	"Frequency / Hz"	"Sound Pressure Level / dB (re 20 µPa/V)  [2.83  V @ 1. m]"	"Frequency / Hz"	"Sound Pressure Level / dB (re 20 µPa/V)  [2.83  V @ 1. m]"	"Frequency / Hz"	"Sound Pressure Level / dB (re 20 µPa/V)  [2.83  V @ 1. m]"	"Frequency / Hz"	"Sound Pressure Level / dB (re 20 µPa/V)  [2.83  V @ 1. m]"	"Frequency / Hz"	"Sound Pressure Level / dB (re 20 µPa/V)  [2.83  V @ 1. m]"	"Frequency / Hz"	"Sound Pressure Level / dB (re 20 µPa/V)  [2.83  V @ 1. m]"	"Frequency / Hz"	"Sound Pressure Level / dB (re 20 µPa/V)  [2.83  V @ 1. m]"	"Frequency / Hz"	"Sound Pressure Level / dB (re 20 µPa/V)  [2.83  V @ 1. m]"	"Frequency / Hz"	"Sound Pressure Level / dB (re 20 µPa/V)  [2.83  V @ 1. m]"	"Frequency / Hz"	"Sound Pressure Level / dB (re 20 µPa/V)  [2.83  V @ 1. m]"	"Frequency / Hz"	"Sound Pressure Level / dB (re 20 µPa/V)  [2.83  V @ 1. m]"	"Frequency / Hz"	"Sound Pressure Level / dB (re 20 µPa/V)  [2.83  V @ 1. m]"	"Frequency / Hz"	"Sound Pressure Level / dB (re 20 µPa/V)  [2.83  V @ 1. m]"	"Frequency / Hz"	"Sound Pressure Level / dB (re 20 µPa/V)  [2.83  V @ 1. m]"	"Frequency / Hz"	"Sound Pressure Level / dB (re 20 µPa/V)  [2.83  V @ 1. m]"	"Frequency / Hz"	"Sound Pressure Level / dB (re 20 µPa/V)  [2.83  V @ 1. m]"	"Frequency / Hz"	"Sound Pressure Level / dB (re 20 µPa/V)  [2.83  V @ 1. m]"	"Frequency / Hz"	"Sound Pressure Level / dB (re 20 µPa/V)  [2.83  V @ 1. m]"	"Frequency / Hz"	"Sound Pressure Level / dB (re 20 µPa/V)  [2.83  V @ 1. m]"	"Frequency / Hz"	"Sound Pressure Level / dB (re 20 µPa/V)  [2.83  V @ 1. m]"	"Frequency / Hz"	"Sound Pressure Level / dB (re 20 µPa/V)  [2.83  V @ 1. m]"	"Frequency / Hz"	"Sound Pressure Level / dB (re 20 µPa/V)  [2.83  V @ 1. m]"	"Frequency / Hz"	"Sound Pressure Level / dB (re 20 µPa/V)  [2.83  V @ 1. m]"
20.5078	55.8731	20.5078	55.471	20.5078	56.2688	20.5078	55.0692	20.5078	56.6507	20.5078	54.6736	20.5078	57.0099	20.5078	54.2899	20.5078	57.3373	20.5078	53.9246	20.5078	57.6239	20.5078	53.586	20.5078	57.861	20.5078	53.2849	20.5078	58.0415	20.5078	53.0352	20.5078	58.1591	20.5078	52.8536	20.5078	58.2094	20.5078	52.7586	20.5078	58.1889	20.5078	52.7678	20.5078	58.0957	20.5078	52.8934	20.5078	57.9289	20.5078	53.1384	20.5078	57.6888	20.5078	53.4936	20.5078	57.3775	20.5078	53.9393	20.5078	56.9986	20.5078	54.4481	20.5078	56.5585	20.5078	54.9904	20.5078	56.067	20.5078	55.538
21.9727	60.3865	21.9727	60.102	21.9727	60.6722	21.9727	59.8288	21.9727	60.949	21.9727	59.5768	21.9727	61.2077	21.9727	59.3545	21.9727	61.4398	21.9727	59.1693	21.9727	61.6384	21.9727	59.0266	21.9727	61.7978	21.9727	58.93	21.9727	61.914	21.9727	58.8816	21.9727	61.9845	21.9727	58.8816	21.9727	62.0081	21.9727	58.929	21.9727	61.9852	21.9727	59.0215	21.9727	61.9173	21.9727	59.1556	21.9727	61.8072	21.9727	59.3269	21.9727	61.6589	21.9727	59.5298	21.9727	61.4769	21.9727	59.758	21.9727	61.2665	21.9727	60.0047	21.9727	61.0336	21.9727	60.2628	21.9727	60.7843	21.9727	60.5251
23.4375	63.1369	23.4375	62.9377	23.4375	63.3291	23.4375	62.7369	23.4375	63.5084	23.4375	62.5398	23.4375	63.6692	23.4375	62.3512	23.4375	63.8061	23.4375	62.1756	23.4375	63.9139	23.4375	62.0168	23.4375	63.9883	23.4375	61.8784	23.4375	64.0258	23.4375	61.7635	23.4375	64.0239	23.4375	61.6748	23.4375	63.9816	23.4375	61.6149	23.4375	63.8992	23.4375	61.5861	23.4375	63.7787	23.4375	61.5905	23.4375	63.6235	23.4375	61.6297	23.4375	63.4388	23.4375	61.7045	23.4375	63.2311	23.4375	61.8148	23.4375	63.0079	23.4375	61.9587	23.4375	62.7779	23.4375	62.1328	23.4375	62.5497	23.4375	62.3321
24.9023	64.4924	24.9023	64.2885	24.9023	64.6857	24.9023	64.0798	24.9023	64.8625	24.9023	63.8719	24.9023	65.0171	24.9023	63.6702	24.9023	65.1441	24.9023	63.4795	24.9023	65.2388	24.9023	63.3041	24.9023	65.297	24.9023	63.1479	24.9023	65.3155	24.9023	63.0141	24.9023	65.2923	24.9023	62.9056	24.9023	65.2267	24.9023	62.825	24.9023	65.1198	24.9023	62.7749	24.9023	64.974	24.9023	62.7578	24.9023	64.7937	24.9023	62.7757	24.9023	64.585	24.9023	62.8305	24.9023	64.3554	24.9023	62.923	24.9023	64.1138	24.9023	63.0527	24.9023	63.8698	24.9023	63.2175	24.9023	63.6332	24.9023	63.4131
26.3672	66.7662	26.3672	66.5959	26.3672	66.9286	26.3672	66.4225	26.3672	67.0781	26.3672	66.2505	26.3672	67.2097	26.3672	66.0843	26.3672	67.3188	26.3672	65.9276	26.3672	67.4009	26.3672	65.784	26.3672	67.4525	26.3672	65.6565	26.3672	67.4707	26.3672	65.5479	26.3672	67.4537	26.3672	65.4605	26.3672	67.4011	26.3672	65.3967	26.3672	67.3136	26.3672	65.3586	26.3672	67.1938	26.3672	65.3482	26.3672	67.0453	26.3672	65.3671	26.3672	66.8735	26.3672	65.4165	26.3672	66.6846	26.3672	65.4967	26.3672	66.486	26.3672	65.6071	26.3672	66.2853	26.3672	65.7455	26.3672	66.0903	26.3672	65.9082
27.832	68.3215	27.832	68.1705	27.832	68.4646	27.832	68.0163	27.832	68.5952	27.832	67.8631	27.832	68.7086	27.832	67.7152	27.832	68.8005	27.832	67.576	27.832	68.8669	27.832	67.4487	27.832	68.9047	27.832	67.336	27.832	68.9113	27.832	67.24	27.832	68.8856	27.832	67.1625	27.832	68.8276	27.832	67.1051	27.832	68.7385	27.832	67.0691	27.832	68.6214	27.832	67.0555	27.832	68.4803	27.832	67.0656	27.832	68.321	27.832	67.1002	27.832	68.1497	27.832	67.1598	27.832	67.9737	27.832	67.2445	27.832	67.7999	27.832	67.3534	27.832	67.635	27.832	67.4846
29.2969	70.0436	29.2969	69.8917	29.2969	70.1868	29.2969	69.7354	29.2969	70.3167	29.2969	69.5791	29.2969	70.4291	29.2969	69.4266	29.2969	70.5195	29.2969	69.2815	29.2969	70.5843	29.2969	69.147	29.2969	70.6203	29.2969	69.026	29.2969	70.625	29.2969	68.921	29.2969	70.5973	29.2969	68.8343	29.2969	70.537	29.2969	68.7678	29.2969	70.4454	29.2969	68.7237	29.2969	70.3251	29.2969	68.7036	29.2969	70.1803	29.2969	68.7092	29.2969	70.0162	29.2969	68.7419	29.2969	69.8391	29.2969	68.8022	29.2969	69.6561	29.2969	68.8902	29.2969	69.4745	29.2969	69.0046	29.2969	69.3014	29.2969	69.143
30.7617	71.946	30.7617	71.8138	30.7617	72.0707	30.7617	71.6783	30.7617	72.1839	30.7617	71.5431	30.7617	72.2816	30.7617	71.4117	30.7617	72.3599	30.7617	71.2873	30.7617	72.4154	30.7617	71.1725	30.7617	72.4452	30.7617	71.0697	30.7617	72.4473	30.7617	70.9807	30.7617	72.4206	30.7617	70.9073	30.7617	72.3649	30.7617	70.851	30.7617	72.2816	30.7617	70.8129	30.7617	72.1732	30.7617	70.7945	30.7617	72.0436	30.7617	70.797	30.7617	71.898	30.7617	70.8214	30.7617	71.7421	30.7617	70.8686	30.7617	71.5827	30.7617	70.9389	30.7617	71.4263	30.7617	71.032	30.7617	71.2791	30.7617	71.1463
32.2266	73.1411	32.2266	73.0164	32.2266	73.2573	32.2266	72.887	32.2266	73.3609	32.2266	72.7567	32.2266	73.4485	32.2266	72.6293	32.2266	73.5164	32.2266	72.508	32.2266	73.562	32.2266	72.3958	32.2266	73.5828	32.2266	72.2953	32.2266	73.5772	32.2266	72.2086	32.2266	73.5449	32.2266	72.1374	32.2266	73.4862	32.2266	72.0832	32.2266	73.4028	32.2266	72.0471	32.2266	73.2975	32.2266	72.03	32.2266	73.1743	32.2266	72.0327	32.2266	73.0379	32.2266	72.0558	32.2266	72.8939	32.2266	72.0996	32.2266	72.748	32.2266	72.1641	32.2266	72.6058	32.2266	72.2488	32.2266	72.4725	32.2266	72.3524
33.6914	74.4195	33.6914	74.2915	33.6914	74.5383	33.6914	74.158	33.6914	74.644	33.6914	74.023	33.6914	74.733	33.6914	73.8902	33.6914	74.8019	33.6914	73.7631	33.6914	74.8478	33.6914	73.6447	33.6914	74.8685	33.6914	73.5378	33.6914	74.8626	33.6914	73.445	33.6914	74.8293	33.6914	73.3681	33.6914	74.7691	33.6914	73.309	33.6914	74.6836	33.6914	73.269	33.6914	74.5755	33.6914	73.2493	33.6914	74.4485	33.6914	73.251	33.6914	74.3075	33.6914	73.2746	33.6914	74.1578	33.6914	73.3207	33.6914	74.0055	33.6914	73.389	33.6914	73.8564	33.6914	73.479	33.6914	73.7159	33.6914	73.5888
35.1562	75.8151	35.1562	75.694	35.1562	75.926	35.1562	75.5663	35.1562	76.0232	35.1562	75.4357	35.1562	76.1035	35.1562	75.3059	35.1562	76.164	35.1562	75.1805	35.1562	76.2023	35.1562	75.0628	35.1562	76.2168	35.1562	74.9557	35.1562	76.2063	35.1562	74.8622	35.1562	76.1707	35.1562	74.7845	35.1562	76.1108	35.1562	74.7248	35.1562	76.0281	35.1562	74.6845	35.1562	75.9254	35.1562	74.6651	35.1562	75.806	35.1562	74.6673	35.1562	75.6743	35.1562	74.6916	35.1562	75.5348	35.1562	74.7379	35.1562	75.3927	35.1562	74.8057	35.1562	75.253	35.1562	74.8935	35.1562	75.1205	35.1562	74.9994
36.6211	76.6076	36.6211	76.5067	36.6211	76.6982	36.6211	76.3987	36.6211	76.7757	36.6211	76.287	36.6211	76.8379	36.6211	76.1751	36.6211	76.8826	36.6211	76.0666	36.6211	76.9085	36.6211	75.9649	36.6211	76.9146	36.6211	75.8733	36.6211	76.9006	36.6211	75.7943	36.6211	76.8668	36.6211	75.7305	36.6211	76.8143	36.6211	75.6835	36.6211	76.7448	36.6211	75.6544	36.6211	76.6608	36.6211	75.6438	36.6211	76.5652	36.6211	75.6517	36.6211	76.4615	36.6211	75.6777	36.6211	76.353	36.6211	75.7206	36.6211	76.2431	36.6211	75.7794	36.6211	76.1353	36.6211	75.8522	36.6211	76.0325	36.6211	75.9373
38.0859	76.7964	38.0859	76.6846	38.0859	76.897	38.0859	76.5644	38.0859	76.9834	38.0859	76.4391	38.0859	77.0532	38.0859	76.3121	38.0859	77.1041	38.0859	76.1866	38.0859	77.1341	38.0859	76.0663	38.0859	77.1417	38.0859	75.9542	38.0859	77.1259	38.0859	75.8538	38.0859	77.0866	38.0859	75.7677	38.0859	77.0243	38.0859	75.6987	38.0859	76.9404	38.0859	75.6488	38.0859	76.8373	38.0859	75.6201	38.0859	76.7183	38.0859	75.6137	38.0859	76.5873	38.0859	75.6304	38.0859	76.4489	38.0859	75.6704	38.0859	76.3081	38.0859	75.7332	38.0859	76.1699	38.0859	75.8172	38.0859	76.0391	38.0859	75.9202
39.5508	77.8555	39.5508	77.7495	39.5508	77.9528	39.5508	77.6378	39.5508	78.0382	39.5508	77.5236	39.5508	78.1086	39.5508	77.4101	39.5508	78.1614	39.5508	77.3002	39.5508	78.1943	39.5508	77.1966	39.5508	78.2058	39.5508	77.102	39.5508	78.1948	39.5508	77.0188	39.5508	78.1612	39.5508	76.949	39.5508	78.106	39.5508	76.8948	39.5508	78.0308	39.5508	76.8575	39.5508	77.9382	39.5508	76.8385	39.5508	77.8315	39.5508	76.8387	39.5508	77.7146	39.5508	76.8586	39.5508	77.5917	39.5508	76.898	39.5508	77.4672	39.5508	76.9564	39.5508	77.3452	39.5508	77.0326	39.5508	77.2298	39.5508	77.1245
41.0156	78.5663	41.0156	78.4581	41.0156	78.6658	41.0156	78.3448	41.0156	78.7535	41.0156	78.2295	41.0156	78.8261	41.0156	78.1156	41.0156	78.8808	41.0156	78.0059	41.0156	78.9153	41.0156	77.9032	41.0156	78.928	41.0156	77.8101	41.0156	78.918	41.0156	77.7288	41.0156	78.8852	41.0156	77.6613	41.0156	78.8305	41.0156	77.6094	41.0156	78.7556	41.0156	77.5745	41.0156	78.6631	41.0156	77.5577	41.0156	78.5564	41.0156	77.5597	41.0156	78.4393	41.0156	77.5809	41.0156	78.3162	41.0156	77.6211	41.0156	78.1913	41.0156	77.68	41.0156	78.0691	41.0156	77.7563	41.0156	77.9535	41.0156	77.8482
42.4805	79.5775	42.4805	79.4762	42.4805	79.6677	42.4805	79.367	42.4805	79.744	42.4805	79.2532	42.4805	79.804	42.4805	79.1384	42.4805	79.8457	42.4805	79.0261	42.4805	79.8676	42.4805	78.9195	42.4805	79.8691	42.4805	78.8218	42.4805	79.8498	42.4805	78.7359	42.4805	79.8105	42.4805	78.6641	42.4805	79.7522	42.4805	78.6086	42.4805	79.6768	42.4805	78.5709	42.4805	79.5869	42.4805	78.5521	42.4805	79.4854	42.4805	78.5527	42.4805	79.3757	42.4805	78.5728	42.4805	79.2613	42.4805	78.6116	42.4805	79.1459	42.4805	78.6682	42.4805	79.033	42.4805	78.7409	42.4805	78.9258	42.4805	78.8275
43.9453	79.8428	43.9453	79.7441	43.9453	79.9304	43.9453	79.6369	43.9453	80.0041	43.9453	79.5245	43.9453	80.0619	43.9453	79.4102	43.9453	80.1021	43.9453	79.2974	43.9453	80.1236	43.9453	79.1896	43.9453	80.1255	43.9453	79.0901	43.9453	80.1077	43.9453	79.0021	43.9453	80.0708	43.9453	78.9284	43.9453	80.0157	43.9453	78.8713	43.9453	79.9441	43.9453	78.8328	43.9453	79.8583	43.9453	78.8141	43.9453	79.7607	43.9453	78.8158	43.9453	79.6543	43.9453	78.8379	43.9453	79.5424	43.9453	78.8796	43.9453	79.4282	43.9453	78.9395	43.9453	79.3151	43.9453	79.0157	43.9453	79.2065	43.9453	79.1057
45.4102	80.1589	45.4102	80.0572	45.4102	80.2479	45.4102	79.9456	45.4102	80.3217	45.4102	79.8275	45.4102	80.3781	45.4102	79.7063	45.4102	80.4155	45.4102	79.5856	45.4102	80.4327	45.4102	79.4693	45.4102	80.429	45.4102	79.361	45.4102	80.4046	45.4102	79.2642	45.4102	80.36	45.4102	79.1822	45.4102	80.2967	45.4102	79.1177	45.4102	80.2167	45.4102	79.073	45.4102	80.1224	45.4102	79.0494	45.4102	80.0169	45.4102	79.0477	45.4102	79.9034	45.4102	79.0676	45.4102	79.7855	45.4102	79.1083	45.4102	79.6665	45.4102	79.168	45.4102	79.5497	45.4102	79.2447	45.4102	79.4385	45.4102	79.3358
46.875	80.6705	46.875	80.5757	46.875	80.7528	46.875	80.4709	46.875	80.8205	46.875	80.3589	46.875	80.8717	46.875	80.243	46.875	80.905	46.875	80.1265	46.875	80.9194	46.875	80.0129	46.875	80.9145	46.875	79.9057	46.875	80.8902	46.875	79.8086	46.875	80.8472	46.875	79.7248	46.875	80.7863	46.875	79.6572	46.875	80.7094	46.875	79.6084	46.875	80.6185	46.875	79.58	46.875	80.5163	46.875	79.5732	46.875	80.4057	46.875	79.5883	46.875	80.2899	46.875	79.6247	46.875	80.1723	46.875	79.681	46.875	80.0566	46.875	79.7551	46.875	79.9461	46.875	79.8445
48.3398	80.9173	48.3398	80.8394	48.3398	80.9837	48.3398	80.7523	48.3398	81.0369	48.3398	80.6583	48.3398	81.0754	48.3398	80.5601	48.3398	81.0981	48.3398	80.4604	48.3398	81.1043	48.3398	80.3623	48.3398	81.0935	48.3398	80.2689	48.3398	81.0661	48.3398	80.183	48.3398	81.0228	48.3398	80.1075	48.3398	80.9647	48.3398	80.0451	48.3398	80.8937	48.3398	79.9978	48.3398	80.8117	48.3398	79.9675	48.3398	80.7214	48.3398	79.9553	48.3398	80.6252	48.3398	79.9615	48.3398	80.526	48.3398	79.986	48.3398	80.4267	48.3398	80.0278	48.3398	80.3301	48.3398	80.0854	48.3398	80.2391	48.3398	80.1566
51.2695	81.6529	51.2695	81.5791	51.2695	81.7155	51.2695	81.4966	51.2695	81.7649	51.2695	81.4078	51.2695	81.7996	51.2695	81.3156	51.2695	81.8183	51.2695	81.2229	51.2695	81.8206	51.2695	81.1327	51.2695	81.8067	51.2695	81.0479	51.2695	81.7771	51.2695	80.9714	51.2695	81.7333	51.2695	80.9058	51.2695	81.6771	51.2695	80.8533	51.2695	81.6107	51.2695	80.8157	51.2695	81.5365	51.2695	80.794	51.2695	81.4568	51.2695	80.7886	51.2695	81.3739	51.2695	80.7993	51.2695	81.2898	51.2695	80.8252	51.2695	81.2065	51.2695	80.865	51.2695	81.1256	51.2695	80.9168	51.2695	81.0492	51.2695	80.9789
52.7344	81.8087	52.7344	81.7412	52.7344	81.8648	52.7344	81.6648	52.7344	81.9073	52.7344	81.5823	52.7344	81.935	52.7344	81.497	52.7344	81.9472	52.7344	81.4119	52.7344	81.9438	52.7344	81.3302	52.7344	81.9256	52.7344	81.2548	52.7344	81.894	52.7344	81.1883	52.7344	81.8507	52.7344	81.1329	52.7344	81.7981	52.7344	81.0905	52.7344	81.7384	52.7344	81.0621	52.7344	81.6741	52.7344	81.0482	52.7344	81.6072	52.7344	81.0488	52.7344	81.5395	52.7344	81.063	52.7344	81.4723	52.7344	81.0895	52.7344	81.4064	52.7344	81.1264	52.7344	81.3425	52.7344	81.172	52.7344	81.2815	52.7344	81.2242
54.1992	82.076	54.1992	82.0179	54.1992	82.1228	54.1992	81.9506	54.1992	82.1568	54.1992	81.8766	54.1992	82.1769	54.1992	81.7989	54.1992	82.1827	54.1992	81.7206	54.1992	82.1745	54.1992	81.6447	54.1992	82.1531	54.1992	81.5742	54.1992	82.1197	54.1992	81.5117	54.1992	82.0764	54.1992	81.4595	54.1992	82.0251	54.1992	81.4194	54.1992	81.9684	54.1992	81.3924	54.1992	81.9086	54.1992	81.3788	54.1992	81.8478	54.1992	81.3784	54.1992	81.7877	54.1992	81.3899	54.1992	81.7295	54.1992	81.4121	54.1992	81.6737	54.1992	81.4429	54.1992	81.6206	54.1992	81.4806	54.1992	81.5704	54.1992	81.5235
55.6641	82.3783	55.6641	82.3208	55.6641	82.4215	55.6641	82.2507	55.6641	82.4492	55.6641	82.1703	55.6641	82.4606	55.6641	82.0822	55.6641	82.4553	55.6641	81.9893	55.6641	82.4336	55.6641	81.895	55.6641	82.3962	55.6641	81.8027	55.6641	82.3445	55.6641	81.7156	55.6641	82.2804	55.6641	81.637	55.6641	82.2065	55.6641	81.5695	55.6641	82.1255	55.6641	81.5153	55.6641	82.0407	55.6641	81.4758	55.6641	81.9551	55.6641	81.4519	55.6641	81.8714	55.6641	81.4432	55.6641	81.7918	55.6641	81.4491	55.6641	81.7181	55.6641	81.4683	55.6641	81.6511	55.6641	81.4994	55.6641	81.5919	55.6641	81.541
58.5938	82.9241	58.5938	82.8658	58.5938	82.9689	58.5938	82.7958	58.5938	82.9988	58.5938	82.7165	58.5938	83.0126	58.5938	82.6303	58.5938	83.0098	58.5938	82.5401	58.5938	82.9906	58.5938	82.4487	58.5938	82.9554	58.5938	82.3592	58.5938	82.9056	58.5938	82.2744	58.5938	82.8429	58.5938	82.197	58.5938	82.7696	58.5938	82.1295	58.5938	82.6885	58.5938	82.0738	58.5938	82.6024	58.5938	82.0314	58.5938	82.5143	58.5938	82.0033	58.5938	82.427	58.5938	81.99	58.5938	82.3429	58.5938	81.9913	58.5938	82.2641	58.5938	82.0068	58.5938	82.1926	58.5938	82.0358	58.5938	82.1298	58.5938	82.0771
60.0586	83.156	60.0586	83.0976	60.0586	83.2001	60.0586	83.0267	60.0586	83.2285	60.0586	82.9457	60.0586	83.2402	60.0586	82.8572	60.0586	83.2349	60.0586	82.7641	60.0586	83.2127	60.0586	82.6695	60.0586	83.1745	60.0586	82.5766	60.0586	83.1217	60.0586	82.4885	60.0586	83.0562	60.0586	82.408	60.0586	82.9804	60.0586	82.3378	60.0586	82.8973	60.0586	82.2799	60.0586	82.8096	60.0586	82.2358	60.0586	82.7205	60.0586	82.2067	60.0586	82.6325	60.0586	82.1929	60.0586	82.548	60.0586	82.1943	60.0586	82.4692	60.0586	82.2101	60.0586	82.3975	60.0586	82.2395	60.0586	82.3345	60.0586	82.2814
62.9883	83.4968	62.9883	83.4421	62.9883	83.5393	62.9883	83.377	62.9883	83.5682	62.9883	83.3039	62.9883	83.5824	62.9883	83.2252	62.9883	83.5817	62.9883	83.1439	62.9883	83.5661	62.9883	83.0627	62.9883	83.5364	62.9883	82.9844	62.9883	83.4939	62.9883	82.9119	62.9883	83.4406	62.9883	82.8475	62.9883	83.3786	62.9883	82.7933	62.9883	83.3104	62.9883	82.7508	62.9883	83.2388	62.9883	82.721	62.9883	83.166	62.9883	82.7044	62.9883	83.0943	62.9883	82.7009	62.9883	83.0253	62.9883	82.7097	62.9883	82.9604	62.9883	82.7299	62.9883	82.9006	62.9883	82.7603	62.9883	82.8467	62.9883	82.7996
64.4531	83.7169	64.4531	83.6627	64.4531	83.7593	64.4531	83.5986	64.4531	83.7885	64.4531	83.527	64.4531	83.8036	64.4531	83.4503	64.4531	83.804	64.4531	83.3713	64.4531	83.79	64.4531	83.2929	64.4531	83.7622	64.4531	83.2179	64.4531	83.7221	64.4531	83.1491	64.4531	83.6716	64.4531	83.0887	64.4531	83.6128	64.4531	83.0387	64.4531	83.5484	64.4531	83.0006	64.4531	83.4809	64.4531	82.9752	64.4531	83.4125	64.4531	82.9627	64.4531	83.3454	64.4531	82.9628	64.4531	83.2809	64.4531	82.9745	64.4531	83.2201	64.4531	82.9967	64.4531	83.1638	64.4531	83.0279	64.4531	83.1125	64.4531	83.0669
67.3828	84.227	67.3828	84.173	67.3828	84.2688	67.3828	84.1085	67.3828	84.2968	67.3828	84.036	67.3828	84.3101	67.3828	83.958	67.3828	84.3082	67.3828	83.8772	67.3828	84.2912	67.3828	83.7965	67.3828	84.2601	67.3828	83.7188	67.3828	84.2164	67.3828	83.6469	67.3828	84.1623	67.3828	83.5833	67.3828	84.1002	67.3828	83.5302	67.3828	84.0329	67.3828	83.4892	67.3828	83.9631	67.3828	83.4613	67.3828	83.8932	67.3828	83.4467	67.3828	83.8251	67.3828	83.4451	67.3828	83.7601	67.3828	83.4556	67.3828	83.6992	67.3828	83.477	67.3828	83.6429	67.3828	83.5077	67.3828	83.5917	67.3828	83.5464
