"SPL Horizontal"
"On-Axis"		"10°"		"-10°"		"20°"		"-20°"		"30°"		"-30°"		"40°"		"-40°"		"50°"		"-50°"		"60°"		"-60°"		"70°"		"-70°"		"80°"		"-80°"		"90°"		"-90°"		"100°"		"-100°"		"110°"		"-110°"		"120°"		"-120°"		"130°"		"-130°"		"140°"		"-140°"		"150°"		"-150°"		"160°"		"-160°"		"170°"		"-170°"		"180°"
"Frequency / Hz"	"Sound Pressure Level / dB (re 20 µPa/V)  [2.83  V @ 1. m]"	"Frequency / Hz"	"Sound Pressure Level / dB (re 20 µPa/V)  [2.83  V @ 1. m]"	"Frequency / Hz"	"Sound Pressure Level / dB (re 20 µPa/V)  [2.83  V @ 1. m]"	"Frequency / Hz"	"Sound Pressure Level / dB (re 20 µPa/V)  [2.83  V @ 1. m]"	"Frequency / Hz"	"Sound Pressure Level / dB (re 20 µPa/V)  [2.83  V @ 1. m]"	"Frequency / Hz"	"Sound Pressure Level / dB (re 20 µPa/V)  [2.83  V @ 1. m]"	"Frequency / Hz"	"Sound Pressure Level / dB (re 20 µPa/V)  [2.83  V @ 1. m]"	"Frequency / Hz"	"Sound Pressure Level / dB (re 20 µPa/V)  [2.83  V @ 1. m]"	"Frequency / Hz"	"Sound Pressure Level / dB (re 20 µPa/V)  [2.83  V @ 1. m]"	"Frequency / Hz"	"Sound Pressure Level / dB (re 20 µPa/V)  [2.83  V @ 1. m]"	"Frequency / Hz"	"Sound Pressure Level / dB (re 20 µPa/V)  [2.83  V @ 1. m]"	"Frequency / Hz"	"Sound Pressure Level / dB (re 20 µPa/V)  [2.83  V @ 1. m]"	"Frequency / Hz"	"Sound Pressure Level / dB (re 20 µPa/V)  [2.83  V @ 1. m]"	"Frequency / Hz"	"Sound Pressure Level / dB (re 20 µPa/V)  [2.83  V @ 1. m]"	"Frequency / Hz"	"Sound Pressure Level / dB (re 20 µPa/V)  [2.83  V @ 1. m]"	"Frequency / Hz"	"Sound Pressure Level / dB (re 20 µPa/V)  [2.83  V @ 1. m]"	"Frequency / Hz"	"Sound Pressure Level / dB (re 20 µPa/V)  [2.83  V @ 1. m]"	"Frequency / Hz"	"Sound Pressure Level / dB (re 20 µPa/V)  [2.83  V @ 1. m]"	"Frequency / Hz"	"Sound Pressure Level / dB (re 20 µPa/V)  [2.83  V @ 1. m]"	"Frequency / Hz"	"Sound Pressure Level / dB (re 20 µPa/V)  [2.83  V @ 1. m]"	"Frequency / Hz"	"Sound Pressure Level / dB (re 20 µPa/V)  [2.83  V @ 1. m]"	"Frequency / Hz"	"Sound Pressure Level / dB (re 20 µPa/V)  [2.83  V @ 1. m]"	"Frequency / Hz"	"Sound Pressure Level / dB (re 20 µPa/V)  [2.83  V @ 1. m]"	"Frequency / Hz"	"Sound Pressure Level / dB (re 20 µPa/V)  [2.83  V @ 1. m]"	"Frequency / Hz"	"Sound Pressure Level / dB (re 20 µPa/V)  [2.83  V @ 1. m]"	"Frequency / Hz"	"Sound Pressure Level / dB (re 20 µPa/V)  [2.83  V @ 1. m]"	"Frequency / Hz"	"Sound Pressure Level / dB (re 20 µPa/V)  [2.83  V @ 1. m]"	"Frequency / Hz"	"Sound Pressure Level / dB (re 20 µPa/V)  [2.83  V @ 1. m]"	"Frequency / Hz"	"Sound Pressure Level / dB (re 20 µPa/V)  [2.83  V @ 1. m]"	"Frequency / Hz"	"Sound Pressure Level / dB (re 20 µPa/V)  [2.83  V @ 1. m]"	"Frequency / Hz"	"Sound Pressure Level / dB (re 20 µPa/V)  [2.83  V @ 1. m]"	"Frequency / Hz"	"Sound Pressure Level / dB (re 20 µPa/V)  [2.83  V @ 1. m]"	"Frequency / Hz"	"Sound Pressure Level / dB (re 20 µPa/V)  [2.83  V @ 1. m]"	"Frequency / Hz"	"Sound Pressure Level / dB (re 20 µPa/V)  [2.83  V @ 1. m]"	"Frequency / Hz"	"Sound Pressure Level / dB (re 20 µPa/V)  [2.83  V @ 1. m]"	"Frequency / Hz"	"Sound Pressure Level / dB (re 20 µPa/V)  [2.83  V @ 1. m]"
20.5078	55.8731	20.5078	55.905	20.5078	55.8208	20.5078	55.9152	20.5078	55.7509	20.5078	55.9041	20.5078	55.6673	20.5078	55.874	20.5078	55.5746	20.5078	55.8293	20.5078	55.4788	20.5078	55.7757	20.5078	55.3867	20.5078	55.7199	20.5078	55.3059	20.5078	55.6677	20.5078	55.2439	20.5078	55.624	20.5078	55.2066	20.5078	55.5911	20.5078	55.1971	20.5078	55.5694	20.5078	55.2144	20.5078	55.5577	20.5078	55.2538	20.5078	55.5534	20.5078	55.3078	20.5078	55.5539	20.5078	55.3678	20.5078	55.5559	20.5078	55.4257	20.5078	55.5562	20.5078	55.4753	20.5078	55.5514	20.5078	55.513	20.5078	55.538
21.9727	60.3865	21.9727	60.3419	21.9727	60.4236	21.9727	60.2911	21.9727	60.4535	21.9727	60.2365	21.9727	60.4778	21.9727	60.1817	21.9727	60.4991	21.9727	60.1304	21.9727	60.5206	21.9727	60.0867	21.9727	60.5448	21.9727	60.054	21.9727	60.5735	21.9727	60.0346	21.9727	60.6062	21.9727	60.03	21.9727	60.641	21.9727	60.0405	21.9727	60.6743	21.9727	60.0659	21.9727	60.7019	21.9727	60.1053	21.9727	60.7199	21.9727	60.1576	21.9727	60.725	21.9727	60.221	21.9727	60.7153	21.9727	60.2932	21.9727	60.6897	21.9727	60.3708	21.9727	60.6483	21.9727	60.4496	21.9727	60.5925	21.9727	60.5251
23.4375	63.1369	23.4375	63.1315	23.4375	63.1266	23.4375	63.1108	23.4375	63.1009	23.4375	63.0761	23.4375	63.0612	23.4375	63.0296	23.4375	63.0095	23.4375	62.9738	23.4375	62.9486	23.4375	62.9114	23.4375	62.8814	23.4375	62.8452	23.4375	62.8112	23.4375	62.7774	23.4375	62.7407	23.4375	62.7099	23.4375	62.6722	23.4375	62.6443	23.4375	62.6074	23.4375	62.5819	23.4375	62.5474	23.4375	62.5239	23.4375	62.4929	23.4375	62.4715	23.4375	62.4449	23.4375	62.4257	23.4375	62.4041	23.4375	62.3879	23.4375	62.3715	23.4375	62.3591	23.4375	62.3481	23.4375	62.3403	23.4375	62.3347	23.4375	62.3321
24.9023	64.4924	24.9023	64.4788	24.9023	64.4872	24.9023	64.4471	24.9023	64.4632	24.9023	64.3989	24.9023	64.4215	24.9023	64.3364	24.9023	64.3637	24.9023	64.2621	24.9023	64.2922	24.9023	64.1792	24.9023	64.2097	24.9023	64.0906	24.9023	64.1193	24.9023	63.9991	24.9023	64.0243	24.9023	63.9076	24.9023	63.9279	24.9023	63.8186	24.9023	63.8332	24.9023	63.7341	24.9023	63.7432	24.9023	63.6562	24.9023	63.6604	24.9023	63.5867	24.9023	63.5872	24.9023	63.5271	24.9023	63.5253	24.9023	63.4789	24.9023	63.4762	24.9023	63.4432	24.9023	63.4407	24.9023	63.421	24.9023	63.4196	24.9023	63.4131
26.3672	66.7662	26.3672	66.7625	26.3672	66.7547	26.3672	66.7435	26.3672	66.7285	26.3672	66.7101	26.3672	66.6889	26.3672	66.6637	26.3672	66.6378	26.3672	66.6065	26.3672	66.5773	26.3672	66.5409	26.3672	66.5099	26.3672	66.4694	26.3672	66.438	26.3672	66.3947	26.3672	66.3639	26.3672	66.3192	26.3672	66.2899	26.3672	66.2453	26.3672	66.2181	26.3672	66.1751	26.3672	66.1503	26.3672	66.1105	26.3672	66.0884	26.3672	66.053	26.3672	66.0339	26.3672	66.0039	26.3672	65.9881	26.3672	65.9643	26.3672	65.952	26.3672	65.9348	26.3672	65.9264	26.3672	65.916	26.3672	65.9117	26.3672	65.9082
27.832	68.3215	27.832	68.3061	27.832	68.323	27.832	68.2774	27.832	68.3106	27.832	68.2365	27.832	68.2847	27.832	68.185	27.832	68.2465	27.832	68.1248	27.832	68.1972	27.832	68.0581	27.832	68.1388	27.832	67.9872	27.832	68.0732	27.832	67.9143	27.832	68.0027	27.832	67.8416	27.832	67.9294	27.832	67.7712	27.832	67.8557	27.832	67.7052	27.832	67.7839	27.832	67.6453	27.832	67.7161	27.832	67.5932	27.832	67.6544	27.832	67.5501	27.832	67.6003	27.832	67.517	27.832	67.5554	27.832	67.4948	27.832	67.5207	27.832	67.4839	27.832	67.4969	27.832	67.4846
29.2969	70.0436	29.2969	70.0414	29.2969	70.0312	29.2969	70.0249	29.2969	70.0049	29.2969	69.9945	29.2969	69.9655	29.2969	69.9515	29.2969	69.9146	29.2969	69.8973	29.2969	69.8537	29.2969	69.8337	29.2969	69.7849	29.2969	69.763	29.2969	69.7104	29.2969	69.6873	29.2969	69.6326	29.2969	69.6091	29.2969	69.5536	29.2969	69.5309	29.2969	69.4761	29.2969	69.4549	29.2969	69.4022	29.2969	69.3834	29.2969	69.3343	29.2969	69.3184	29.2969	69.2745	29.2969	69.2617	29.2969	69.2243	29.2969	69.2147	29.2969	69.1853	29.2969	69.1787	29.2969	69.1584	29.2969	69.1546	29.2969	69.1442	29.2969	69.143
30.7617	71.946	30.7617	71.9462	30.7617	71.9341	30.7617	71.9348	30.7617	71.9109	30.7617	71.912	30.7617	71.877	30.7617	71.8785	30.7617	71.8334	30.7617	71.8354	30.7617	71.7811	30.7617	71.7838	30.7617	71.7216	30.7617	71.7252	30.7617	71.6564	30.7617	71.6613	30.7617	71.5874	30.7617	71.594	30.7617	71.5164	30.7617	71.5251	30.7617	71.4457	30.7617	71.4567	30.7617	71.3777	30.7617	71.3907	30.7617	71.3148	30.7617	71.3291	30.7617	71.2592	30.7617	71.2737	30.7617	71.2129	30.7617	71.2263	30.7617	71.1775	30.7617	71.1884	30.7617	71.1543	30.7617	71.1614	30.7617	71.1438	30.7617	71.1463
32.2266	73.1411	32.2266	73.1433	32.2266	73.1272	32.2266	73.1337	32.2266	73.1021	32.2266	73.1125	32.2266	73.0666	32.2266	73.0805	32.2266	73.0218	32.2266	73.0385	32.2266	72.9692	32.2266	72.9879	32.2266	72.9102	32.2266	72.9301	32.2266	72.8463	32.2266	72.8668	32.2266	72.7793	32.2266	72.7998	32.2266	72.7111	32.2266	72.7311	32.2266	72.6434	32.2266	72.6626	32.2266	72.5783	32.2266	72.5964	32.2266	72.518	32.2266	72.5345	32.2266	72.4643	32.2266	72.4788	32.2266	72.4193	32.2266	72.4313	32.2266	72.3846	32.2266	72.3936	32.2266	72.3613	32.2266	72.3669	32.2266	72.3505	32.2266	72.3524
33.6914	74.4195	33.6914	74.4123	33.6914	74.4149	33.6914	74.3934	33.6914	74.3986	33.6914	74.3635	33.6914	74.3708	33.6914	74.3235	33.6914	74.3325	33.6914	74.2745	33.6914	74.2846	33.6914	74.218	33.6914	74.2284	33.6914	74.1553	33.6914	74.1653	33.6914	74.0882	33.6914	74.097	33.6914	74.0184	33.6914	74.0254	33.6914	73.9477	33.6914	73.9523	33.6914	73.8781	33.6914	73.8801	33.6914	73.8116	33.6914	73.8113	33.6914	73.7504	33.6914	73.7481	33.6914	73.6964	33.6914	73.693	33.6914	73.6516	33.6914	73.648	33.6914	73.6179	33.6914	73.6149	33.6914	73.5966	33.6914	73.5949	33.6914	73.5888
35.1562	75.8151	35.1562	75.8073	35.1562	75.8119	35.1562	75.7889	35.1562	75.7978	35.1562	75.7602	35.1562	75.7728	35.1562	75.7217	35.1562	75.7375	35.1562	75.6743	35.1562	75.6925	35.1562	75.6188	35.1562	75.6387	35.1562	75.5566	35.1562	75.5776	35.1562	75.4891	35.1562	75.5109	35.1562	75.4184	35.1562	75.4404	35.1562	75.3466	35.1562	75.3683	35.1562	75.2761	35.1562	75.2969	35.1562	75.2093	35.1562	75.2287	35.1562	75.1486	35.1562	75.1659	35.1562	75.0961	35.1562	75.1106	35.1562	75.0536	35.1562	75.0648	35.1562	75.0226	35.1562	75.0303	35.1562	75.0043	35.1562	75.0082	35.1562	74.9994
36.6211	76.6076	36.6211	76.5979	36.6211	76.6061	36.6211	76.5772	36.6211	76.5936	36.6211	76.5462	36.6211	76.5707	36.6211	76.5059	36.6211	76.538	36.6211	76.4574	36.6211	76.497	36.6211	76.4024	36.6211	76.4489	36.6211	76.3428	36.6211	76.3956	36.6211	76.2808	36.6211	76.3389	36.6211	76.2185	36.6211	76.2809	36.6211	76.1583	36.6211	76.2234	36.6211	76.1025	36.6211	76.1683	36.6211	76.0528	36.6211	76.117	36.6211	76.0108	36.6211	76.0707	36.6211	75.9776	36.6211	76.0302	36.6211	75.9536	36.6211	75.9961	36.6211	75.9391	36.6211	75.969	36.6211	75.9338	36.6211	75.9492	36.6211	75.9373
38.0859	76.7964	38.0859	76.792	38.0859	76.7885	38.0859	76.7751	38.0859	76.7683	38.0859	76.746	38.0859	76.7366	38.0859	76.7054	38.0859	76.6941	38.0859	76.6542	38.0859	76.6418	38.0859	76.5938	38.0859	76.5809	38.0859	76.526	38.0859	76.5131	38.0859	76.4528	38.0859	76.4401	38.0859	76.3764	38.0859	76.364	38.0859	76.2993	38.0859	76.2872	38.0859	76.2239	38.0859	76.2121	38.0859	76.1525	38.0859	76.1413	38.0859	76.0875	38.0859	76.0773	38.0859	76.0309	38.0859	76.0221	38.0859	75.9845	38.0859	75.9776	38.0859	75.95	38.0859	75.9452	38.0859	75.9283	38.0859	75.9259	38.0859	75.9202
39.5508	77.8555	39.5508	77.849	39.5508	77.8519	39.5508	77.8322	39.5508	77.8381	39.5508	77.8056	39.5508	77.8145	39.5508	77.7698	39.5508	77.7817	39.5508	77.7254	39.5508	77.7406	39.5508	77.6736	39.5508	77.6922	39.5508	77.6156	39.5508	77.6378	39.5508	77.5532	39.5508	77.5789	39.5508	77.4881	39.5508	77.517	39.5508	77.4225	39.5508	77.4541	39.5508	77.3587	39.5508	77.3918	39.5508	77.299	39.5508	77.3323	39.5508	77.2454	39.5508	77.2773	39.5508	77.2	39.5508	77.2285	39.5508	77.1642	39.5508	77.1877	39.5508	77.1394	39.5508	77.156	39.5508	77.126	39.5508	77.1347	39.5508	77.1245
41.0156	78.5663	41.0156	78.5548	41.0156	78.5675	41.0156	78.5334	41.0156	78.5583	41.0156	78.5026	41.0156	78.539	41.0156	78.4633	41.0156	78.5101	41.0156	78.4163	41.0156	78.4722	41.0156	78.363	41.0156	78.4265	41.0156	78.3049	41.0156	78.374	41.0156	78.2435	41.0156	78.3163	41.0156	78.1807	41.0156	78.2549	41.0156	78.1185	41.0156	78.1918	41.0156	78.0587	41.0156	78.1288	41.0156	78.0033	41.0156	78.068	41.0156	77.9539	41.0156	78.0113	41.0156	77.9124	41.0156	77.9607	41.0156	77.8801	41.0156	77.9178	41.0156	77.8582	41.0156	77.884	41.0156	77.8474	41.0156	77.8606	41.0156	77.8482
42.4805	79.5775	42.4805	79.5743	42.4805	79.5692	42.4805	79.5597	42.4805	79.5496	42.4805	79.5342	42.4805	79.5191	42.4805	79.4983	42.4805	79.4787	42.4805	79.4532	42.4805	79.4295	42.4805	79.4001	42.4805	79.373	42.4805	79.3405	42.4805	79.3111	42.4805	79.2762	42.4805	79.2459	42.4805	79.2095	42.4805	79.1796	42.4805	79.1425	42.4805	79.1144	42.4805	79.0776	42.4805	79.0523	42.4805	79.017	42.4805	78.9952	42.4805	78.9626	42.4805	78.9448	42.4805	78.9162	42.4805	78.9024	42.4805	78.8789	42.4805	78.8689	42.4805	78.8515	42.4805	78.845	42.4805	78.8343	42.4805	78.8311	42.4805	78.8275
43.9453	79.8428	43.9453	79.8371	43.9453	79.8373	43.9453	79.8204	43.9453	79.8205	43.9453	79.7933	43.9453	79.7929	43.9453	79.7566	43.9453	79.7552	43.9453	79.7114	43.9453	79.7083	43.9453	79.6591	43.9453	79.6539	43.9453	79.6012	43.9453	79.5935	43.9453	79.5394	43.9453	79.5292	43.9453	79.4756	43.9453	79.4633	43.9453	79.4118	43.9453	79.3979	43.9453	79.3499	43.9453	79.3353	43.9453	79.2919	43.9453	79.2774	43.9453	79.2394	43.9453	79.2261	43.9453	79.1941	43.9453	79.1827	43.9453	79.1573	43.9453	79.1483	43.9453	79.1299	43.9453	79.1237	43.9453	79.1125	43.9453	79.1094	43.9453	79.1057
45.4102	80.1589	45.4102	80.1561	45.4102	80.1498	45.4102	80.1418	45.4102	80.1287	45.4102	80.1164	45.4102	80.0959	45.4102	80.0809	45.4102	80.052	45.4102	80.0363	45.4102	79.9979	45.4102	79.9839	45.4102	79.935	45.4102	79.925	45.4102	79.865	45.4102	79.8613	45.4102	79.7902	45.4102	79.7942	45.4102	79.713	45.4102	79.7255	45.4102	79.6365	45.4102	79.657	45.4102	79.5637	45.4102	79.5906	45.4102	79.4973	45.4102	79.5281	45.4102	79.4399	45.4102	79.4715	45.4102	79.3935	45.4102	79.4225	45.4102	79.3594	45.4102	79.3827	45.4102	79.3384	45.4102	79.3535	45.4102	79.3306	45.4102	79.3358
46.875	80.6705	46.875	80.6644	46.875	80.6652	46.875	80.6471	46.875	80.6483	46.875	80.6195	46.875	80.62	46.875	80.5822	46.875	80.5806	46.875	80.5362	46.875	80.5309	46.875	80.4828	46.875	80.4721	46.875	80.4233	46.875	80.4057	46.875	80.3593	46.875	80.3336	46.875	80.2923	46.875	80.2582	46.875	80.2239	46.875	80.1821	46.875	80.1559	46.875	80.108	46.875	80.09	46.875	80.0389	46.875	80.0281	46.875	79.9772	46.875	79.9721	46.875	79.9253	46.875	79.9239	46.875	79.885	46.875	79.8855	46.875	79.8577	46.875	79.8586	46.875	79.8441	46.875	79.8445
48.3398	80.9173	48.3398	80.9059	48.3398	80.9179	48.3398	80.8839	48.3398	80.9079	48.3398	80.8519	48.3398	80.8874	48.3398	80.8107	48.3398	80.8572	48.3398	80.7613	48.3398	80.8178	48.3398	80.7052	48.3398	80.7704	48.3398	80.644	48.3398	80.7159	48.3398	80.5795	48.3398	80.6558	48.3398	80.5134	48.3398	80.5917	48.3398	80.4478	48.3398	80.5252	48.3398	80.3846	48.3398	80.4584	48.3398	80.3258	48.3398	80.3933	48.3398	80.2732	48.3398	80.3322	48.3398	80.2286	48.3398	80.2774	48.3398	80.1934	48.3398	80.2309	48.3398	80.1691	48.3398	80.1944	48.3398	80.1566	48.3398	80.1693	48.3398	80.1566
51.2695	81.6529	51.2695	81.6474	51.2695	81.6479	51.2695	81.6317	51.2695	81.6322	51.2695	81.6062	51.2695	81.6062	51.2695	81.5717	51.2695	81.5704	51.2695	81.5291	51.2695	81.5255	51.2695	81.4797	51.2695	81.4729	51.2695	81.4251	51.2695	81.4147	51.2695	81.3671	51.2695	81.3529	51.2695	81.3076	51.2695	81.2901	51.2695	81.2488	51.2695	81.229	51.2695	81.1925	51.2695	81.1717	51.2695	81.1406	51.2695	81.1201	51.2695	81.0945	51.2695	81.0757	51.2695	81.0553	51.2695	81.0393	51.2695	81.0237	51.2695	81.0113	51.2695	81.0003	51.2695	80.9919	51.2695	80.9854	51.2695	80.9811	51.2695	80.9789
52.7344	81.8087	52.7344	81.8082	52.7344	81.7985	52.7344	81.7971	52.7344	81.7778	52.7344	81.7761	52.7344	81.7472	52.7344	81.7461	52.7344	81.7077	52.7344	81.7083	52.7344	81.6606	52.7344	81.6644	52.7344	81.6078	52.7344	81.6163	52.7344	81.5515	52.7344	81.5657	52.7344	81.494	52.7344	81.5147	52.7344	81.4377	52.7344	81.4651	52.7344	81.3851	52.7344	81.4181	52.7344	81.338	52.7344	81.3751	52.7344	81.2981	52.7344	81.3367	52.7344	81.2662	52.7344	81.3034	52.7344	81.2426	52.7344	81.2754	52.7344	81.2272	52.7344	81.2528	52.7344	81.2194	52.7344	81.2357	52.7344	81.2186	52.7344	81.2242
54.1992	82.076	54.1992	82.0742	54.1992	82.0666	54.1992	82.0614	54.1992	82.0461	54.1992	82.0383	54.1992	82.0154	54.1992	82.0063	54.1992	81.9759	54.1992	81.9669	54.1992	81.9292	54.1992	81.9221	54.1992	81.8775	54.1992	81.874	54.1992	81.8229	54.1992	81.8246	54.1992	81.768	54.1992	81.7759	54.1992	81.715	54.1992	81.7295	54.1992	81.6662	54.1992	81.6867	54.1992	81.6232	54.1992	81.6484	54.1992	81.5873	54.1992	81.6151	54.1992	81.5591	54.1992	81.5871	54.1992	81.5388	54.1992	81.5642	54.1992	81.5259	54.1992	81.5461	54.1992	81.5195	54.1992	81.5326	54.1992	81.519	54.1992	81.5235
55.6641	82.3783	55.6641	82.3668	55.6641	82.3756	55.6641	82.3412	55.6641	82.3588	55.6641	82.3025	55.6641	82.3285	55.6641	82.252	55.6641	82.2858	55.6641	82.1914	55.6641	82.2323	55.6641	82.1232	55.6641	82.1697	55.6641	82.0497	55.6641	82.1003	55.6641	81.9739	55.6641	82.0266	55.6641	81.8984	55.6641	81.9512	55.6641	81.826	55.6641	81.8767	55.6641	81.759	55.6641	81.8056	55.6641	81.6993	55.6641	81.7403	55.6641	81.6485	55.6641	81.6827	55.6641	81.6071	55.6641	81.6342	55.6641	81.5758	55.6641	81.5955	55.6641	81.5543	55.6641	81.5672	55.6641	81.5428	55.6641	81.549	55.6641	81.541
58.5938	82.9241	58.5938	82.9125	58.5938	82.9219	58.5938	82.8874	58.5938	82.906	58.5938	82.8498	58.5938	82.8769	58.5938	82.8008	58.5938	82.8356	58.5938	82.7422	58.5938	82.7834	58.5938	82.6759	58.5938	82.7222	58.5938	82.6043	58.5938	82.654	58.5938	82.5299	58.5938	82.5811	58.5938	82.455	58.5938	82.5061	58.5938	82.3822	58.5938	82.4313	58.5938	82.3138	58.5938	82.3594	58.5938	82.2516	58.5938	82.2924	58.5938	82.1972	58.5938	82.2323	58.5938	82.152	58.5938	82.1807	58.5938	82.1169	58.5938	82.1386	58.5938	82.0925	58.5938	82.1071	58.5938	82.0792	58.5938	82.0865	58.5938	82.0771
60.0586	83.156	60.0586	83.1367	60.0586	83.1606	60.0586	83.1032	60.0586	83.1504	60.0586	83.0567	60.0586	83.1259	60.0586	82.9987	60.0586	83.088	60.0586	82.9311	60.0586	83.038	60.0586	82.8564	60.0586	82.9777	60.0586	82.7772	60.0586	82.9093	60.0586	82.6963	60.0586	82.8352	60.0586	82.6168	60.0586	82.7579	60.0586	82.5415	60.0586	82.68	60.0586	82.4729	60.0586	82.6042	60.0586	82.413	60.0586	82.5327	60.0586	82.3632	60.0586	82.4677	60.0586	82.3244	60.0586	82.4107	60.0586	82.2969	60.0586	82.363	60.0586	82.2807	60.0586	82.3253	60.0586	82.2756	60.0586	82.298	60.0586	82.2814
62.9883	83.4968	62.9883	83.4875	62.9883	83.4931	62.9883	83.4656	62.9883	83.4764	62.9883	83.4319	62.9883	83.4476	62.9883	83.3881	62.9883	83.4079	62.9883	83.3359	62.9883	83.359	62.9883	83.2776	62.9883	83.3028	62.9883	83.2156	62.9883	83.2418	62.9883	83.1524	62.9883	83.1784	62.9883	83.0904	62.9883	83.115	62.9883	83.0317	62.9883	83.0539	62.9883	82.978	62.9883	82.9969	62.9883	82.9305	62.9883	82.9457	62.9883	82.8901	62.9883	82.9015	62.9883	82.8571	62.9883	82.865	62.9883	82.8316	62.9883	82.8365	62.9883	82.8135	62.9883	82.8162	62.9883	82.8028	62.9883	82.804	62.9883	82.7996
64.4531	83.7169	64.4531	83.7057	64.4531	83.7152	64.4531	83.682	64.4531	83.7008	64.4531	83.6469	64.4531	83.6744	64.4531	83.602	64.4531	83.6373	64.4531	83.5492	64.4531	83.5912	64.4531	83.491	64.4531	83.5382	64.4531	83.43	64.4531	83.4807	64.4531	83.3689	64.4531	83.421	64.4531	83.31	64.4531	83.3616	64.4531	83.2556	64.4531	83.3047	64.4531	83.2071	64.4531	83.252	64.4531	83.1657	64.4531	83.205	64.4531	83.1317	64.4531	83.1646	64.4531	83.1052	64.4531	83.1312	64.4531	83.0858	64.4531	83.1049	64.4531	83.0732	64.4531	83.0857	64.4531	83.0669	64.4531	83.0731	64.4531	83.0669
67.3828	84.227	67.3828	84.2122	67.3828	84.228	67.3828	84.1841	67.3828	84.2153	67.3828	84.1438	67.3828	84.1897	67.3828	84.093	67.3828	84.1525	67.3828	84.034	67.3828	84.1056	67.3828	83.9694	67.3828	84.0512	67.3828	83.9021	67.3828	83.9917	67.3828	83.8352	67.3828	83.9299	67.3828	83.7715	67.3828	83.8683	67.3828	83.7134	67.3828	83.8091	67.3828	83.6628	67.3828	83.7543	67.3828	83.621	67.3828	83.7052	67.3828	83.5883	67.3828	83.6626	67.3828	83.5646	67.3828	83.6267	67.3828	83.5494	67.3828	83.5975	67.3828	83.5418	67.3828	83.5745	67.3828	83.541	67.3828	83.5576	67.3828	83.5464
