"SPL Vertical"
"On-Axis"		"10°"		"-10°"		"20°"		"-20°"		"30°"		"-30°"		"40°"		"-40°"		"50°"		"-50°"		"60°"		"-60°"		"70°"		"-70°"		"80°"		"-80°"		"90°"		"-90°"		"100°"		"-100°"		"110°"		"-110°"		"120°"		"-120°"		"130°"		"-130°"		"140°"		"-140°"		"150°"		"-150°"		"160°"		"-160°"		"170°"		"-170°"		"180°"
"Frequency / Hz"	"Sound Pressure Level / dB (re 20 µPa/V)  [2.83  V @ 1. m]"	"Frequency / Hz"	"Sound Pressure Level / dB (re 20 µPa/V)  [2.83  V @ 1. m]"	"Frequency / Hz"	"Sound Pressure Level / dB (re 20 µPa/V)  [2.83  V @ 1. m]"	"Frequency / Hz"	"Sound Pressure Level / dB (re 20 µPa/V)  [2.83  V @ 1. m]"	"Frequency / Hz"	"Sound Pressure Level / dB (re 20 µPa/V)  [2.83  V @ 1. m]"	"Frequency / Hz"	"Sound Pressure Level / dB (re 20 µPa/V)  [2.83  V @ 1. m]"	"Frequency / Hz"	"Sound Pressure Level / dB (re 20 µPa/V)  [2.83  V @ 1. m]"	"Frequency / Hz"	"Sound Pressure Level / dB (re 20 µPa/V)  [2.83  V @ 1. m]"	"Frequency / Hz"	"Sound Pressure Level / dB (re 20 µPa/V)  [2.83  V @ 1. m]"	"Frequency / Hz"	"Sound Pressure Level / dB (re 20 µPa/V)  [2.83  V @ 1. m]"	"Frequency / Hz"	"Sound Pressure Level / dB (re 20 µPa/V)  [2.83  V @ 1. m]"	"Frequency / Hz"	"Sound Pressure Level / dB (re 20 µPa/V)  [2.83  V @ 1. m]"	"Frequency / Hz"	"Sound Pressure Level / dB (re 20 µPa/V)  [2.83  V @ 1. m]"	"Frequency / Hz"	"Sound Pressure Level / dB (re 20 µPa/V)  [2.83  V @ 1. m]"	"Frequency / Hz"	"Sound Pressure Level / dB (re 20 µPa/V)  [2.83  V @ 1. m]"	"Frequency / Hz"	"Sound Pressure Level / dB (re 20 µPa/V)  [2.83  V @ 1. m]"	"Frequency / Hz"	"Sound Pressure Level / dB (re 20 µPa/V)  [2.83  V @ 1. m]"	"Frequency / Hz"	"Sound Pressure Level / dB (re 20 µPa/V)  [2.83  V @ 1. m]"	"Frequency / Hz"	"Sound Pressure Level / dB (re 20 µPa/V)  [2.83  V @ 1. m]"	"Frequency / Hz"	"Sound Pressure Level / dB (re 20 µPa/V)  [2.83  V @ 1. m]"	"Frequency / Hz"	"Sound Pressure Level / dB (re 20 µPa/V)  [2.83  V @ 1. m]"	"Frequency / Hz"	"Sound Pressure Level / dB (re 20 µPa/V)  [2.83  V @ 1. m]"	"Frequency / Hz"	"Sound Pressure Level / dB (re 20 µPa/V)  [2.83  V @ 1. m]"	"Frequency / Hz"	"Sound Pressure Level / dB (re 20 µPa/V)  [2.83  V @ 1. m]"	"Frequency / Hz"	"Sound Pressure Level / dB (re 20 µPa/V)  [2.83  V @ 1. m]"	"Frequency / Hz"	"Sound Pressure Level / dB (re 20 µPa/V)  [2.83  V @ 1. m]"	"Frequency / Hz"	"Sound Pressure Level / dB (re 20 µPa/V)  [2.83  V @ 1. m]"	"Frequency / Hz"	"Sound Pressure Level / dB (re 20 µPa/V)  [2.83  V @ 1. m]"	"Frequency / Hz"	"Sound Pressure Level / dB (re 20 µPa/V)  [2.83  V @ 1. m]"	"Frequency / Hz"	"Sound Pressure Level / dB (re 20 µPa/V)  [2.83  V @ 1. m]"	"Frequency / Hz"	"Sound Pressure Level / dB (re 20 µPa/V)  [2.83  V @ 1. m]"	"Frequency / Hz"	"Sound Pressure Level / dB (re 20 µPa/V)  [2.83  V @ 1. m]"	"Frequency / Hz"	"Sound Pressure Level / dB (re 20 µPa/V)  [2.83  V @ 1. m]"	"Frequency / Hz"	"Sound Pressure Level / dB (re 20 µPa/V)  [2.83  V @ 1. m]"	"Frequency / Hz"	"Sound Pressure Level / dB (re 20 µPa/V)  [2.83  V @ 1. m]"	"Frequency / Hz"	"Sound Pressure Level / dB (re 20 µPa/V)  [2.83  V @ 1. m]"
20.5078	52.2187	20.5078	52.1523	20.5078	52.2878	20.5078	52.0907	20.5078	52.3565	20.5078	52.0351	20.5078	52.4207	20.5078	51.9859	20.5078	52.4763	20.5078	51.9431	20.5078	52.519	20.5078	51.9066	20.5078	52.5454	20.5078	51.8763	20.5078	52.5532	20.5078	51.8522	20.5078	52.5412	20.5078	51.8343	20.5078	52.5101	20.5078	51.8226	20.5078	52.4619	20.5078	51.8171	20.5078	52.3999	20.5078	51.8176	20.5078	52.3285	20.5078	51.8236	20.5078	52.2524	20.5078	51.8351	20.5078	52.1766	20.5078	51.852	20.5078	52.1052	20.5078	51.8746	20.5078	52.0412	20.5078	51.9037	20.5078	51.9862	20.5078	51.9406
21.9727	55.1334	21.9727	55.0573	21.9727	55.2022	21.9727	54.9768	21.9727	55.2614	21.9727	54.8944	21.9727	55.3088	21.9727	54.8129	21.9727	55.3427	21.9727	54.7348	21.9727	55.3622	21.9727	54.6627	21.9727	55.3666	21.9727	54.5988	21.9727	55.3563	21.9727	54.545	21.9727	55.3318	21.9727	54.5031	21.9727	55.2945	21.9727	54.4744	21.9727	55.2461	21.9727	54.4596	21.9727	55.1886	21.9727	54.459	21.9727	55.1243	21.9727	54.4722	21.9727	55.0554	21.9727	54.4984	21.9727	54.9838	21.9727	54.5363	21.9727	54.9112	21.9727	54.5841	21.9727	54.8392	21.9727	54.64	21.9727	54.7691	21.9727	54.7022
23.4375	54.1293	23.4375	54.0406	23.4375	54.2159	23.4375	53.9524	23.4375	54.2971	23.4375	53.8672	23.4375	54.3696	23.4375	53.7872	23.4375	54.4302	23.4375	53.7142	23.4375	54.4758	23.4375	53.65	23.4375	54.504	23.4375	53.5961	23.4375	54.5133	23.4375	53.5537	23.4375	54.5031	23.4375	53.524	23.4375	54.474	23.4375	53.5075	23.4375	54.4276	23.4375	53.5047	23.4375	54.3667	23.4375	53.5152	23.4375	54.2944	23.4375	53.5386	23.4375	54.2144	23.4375	53.5737	23.4375	54.1303	23.4375	53.6194	23.4375	54.0452	23.4375	53.6742	23.4375	53.9618	23.4375	53.7369	23.4375	53.8817	23.4375	53.8064
24.9023	55.8068	24.9023	55.7203	24.9023	55.8875	24.9023	55.6306	24.9023	55.9598	24.9023	55.5402	24.9023	56.0212	24.9023	55.4513	24.9023	56.0691	24.9023	55.3662	24.9023	56.1014	24.9023	55.2873	24.9023	56.1163	24.9023	55.2166	24.9023	56.1129	24.9023	55.156	24.9023	56.0911	24.9023	55.1073	24.9023	56.0514	24.9023	55.0718	24.9023	55.9955	24.9023	55.0505	24.9023	55.9255	24.9023	55.044	24.9023	55.8444	24.9023	55.0526	24.9023	55.7551	24.9023	55.0758	24.9023	55.6612	24.9023	55.1132	24.9023	55.5658	24.9023	55.164	24.9023	55.472	24.9023	55.2268	24.9023	55.3827	24.9023	55.3003
26.3672	55.7428	26.3672	55.6441	26.3672	55.8404	26.3672	55.5475	26.3672	55.9332	26.3672	55.4555	26.3672	56.0174	26.3672	55.3706	26.3672	56.0892	26.3672	55.2944	26.3672	56.1453	26.3672	55.2286	26.3672	56.1829	26.3672	55.1744	26.3672	56.2004	26.3672	55.1329	26.3672	56.197	26.3672	55.1051	26.3672	56.1732	26.3672	55.0915	26.3672	56.1304	26.3672	55.0925	26.3672	56.071	26.3672	55.1077	26.3672	55.9979	26.3672	55.1369	26.3672	55.9145	26.3672	55.1792	26.3672	55.8243	26.3672	55.2334	26.3672	55.7304	26.3672	55.2984	26.3672	55.6358	26.3672	55.3728	26.3672	55.5433	26.3672	55.455
27.832	56.666	27.832	56.5649	27.832	56.7622	27.832	56.4623	27.832	56.8498	27.832	56.361	27.832	56.9252	27.832	56.2638	27.832	56.9848	27.832	56.173	27.832	57.0258	27.832	56.0904	27.832	57.0457	27.832	56.0178	27.832	57.0435	27.832	55.9566	27.832	57.0188	27.832	55.9081	27.832	56.9726	27.832	55.8732	27.832	56.9069	27.832	55.8527	27.832	56.8249	27.832	55.847	27.832	56.7301	27.832	55.8563	27.832	56.6267	27.832	55.8806	27.832	56.5189	27.832	55.9196	27.832	56.4108	27.832	55.9727	27.832	56.3059	27.832	56.0392	27.832	56.2075	27.832	56.1179
29.2969	57.0329	29.2969	56.9333	29.2969	57.1266	29.2969	56.8309	29.2969	57.211	29.2969	56.7285	29.2969	57.2827	29.2969	56.6289	29.2969	57.3385	29.2969	56.5344	29.2969	57.3757	29.2969	56.4471	29.2969	57.3921	29.2969	56.3689	29.2969	57.3867	29.2969	56.3015	29.2969	57.3592	29.2969	56.2465	29.2969	57.3106	29.2969	56.2052	29.2969	57.2429	29.2969	56.1785	29.2969	57.1588	29.2969	56.1674	29.2969	57.0619	29.2969	56.1722	29.2969	56.956	29.2969	56.1931	29.2969	56.8454	29.2969	56.2302	29.2969	56.734	29.2969	56.2828	29.2969	56.6257	29.2969	56.3503	29.2969	56.5238	29.2969	56.4312
30.7617	58.4321	30.7617	58.3297	30.7617	58.5309	30.7617	58.2272	30.7617	58.6223	30.7617	58.1277	30.7617	58.7026	30.7617	58.034	30.7617	58.7681	30.7617	57.9483	30.7617	58.8159	30.7617	57.8725	30.7617	58.8437	30.7617	57.8081	30.7617	58.8503	30.7617	57.7563	30.7617	58.8353	30.7617	57.7182	30.7617	58.7996	30.7617	57.6943	30.7617	58.745	30.7617	57.6852	30.7617	58.6742	30.7617	57.6909	30.7617	58.5904	30.7617	57.7113	30.7617	58.4973	30.7617	57.7461	30.7617	58.3983	30.7617	57.7944	30.7617	58.2971	30.7617	57.8553	30.7617	58.1969	30.7617	57.9276	30.7617	58.1003	30.7617	58.0099
32.2266	59.1049	32.2266	59.0118	32.2266	59.1876	32.2266	58.9112	32.2266	59.2568	32.2266	58.8063	32.2266	59.3102	32.2266	58.7001	32.2266	59.3454	32.2266	58.5959	32.2266	59.3609	32.2266	58.4962	32.2266	59.3555	32.2266	58.4039	32.2266	59.3289	32.2266	58.3212	32.2266	59.2816	32.2266	58.2501	32.2266	59.2152	32.2266	58.1923	32.2266	59.132	32.2266	58.1492	32.2266	59.0351	32.2266	58.1217	32.2266	58.9284	32.2266	58.1107	32.2266	58.8159	32.2266	58.1165	32.2266	58.7019	32.2266	58.1392	32.2266	58.5905	32.2266	58.1786	32.2266	58.4851	32.2266	58.2341	32.2266	58.3891	32.2266	58.3047
33.6914	59.5636	33.6914	59.4678	33.6914	59.6539	33.6914	59.3699	33.6914	59.7358	33.6914	59.2725	33.6914	59.8059	33.6914	59.1782	33.6914	59.8613	33.6914	59.0894	33.6914	59.8992	33.6914	59.0081	33.6914	59.9176	33.6914	58.9361	33.6914	59.9151	33.6914	58.8749	33.6914	59.8916	33.6914	58.8257	33.6914	59.8478	33.6914	58.7897	33.6914	59.7853	33.6914	58.7675	33.6914	59.7068	33.6914	58.7597	33.6914	59.6158	33.6914	58.7666	33.6914	59.5159	33.6914	58.7884	33.6914	59.4112	33.6914	58.8249	33.6914	59.3056	33.6914	58.8758	33.6914	59.2027	33.6914	58.9405	33.6914	59.1058	33.6914	59.0176
35.1562	60.5827	35.1562	60.4867	35.1562	60.6688	35.1562	60.3838	35.1562	60.7423	35.1562	60.277	35.1562	60.8004	35.1562	60.1694	35.1562	60.841	35.1562	60.0641	35.1562	60.8623	35.1562	59.9637	35.1562	60.8629	35.1562	59.8708	35.1562	60.8421	35.1562	59.7877	35.1562	60.8001	35.1562	59.7162	35.1562	60.7379	35.1562	59.6581	35.1562	60.6576	35.1562	59.6147	35.1562	60.5618	35.1562	59.5873	35.1562	60.454	35.1562	59.5768	35.1562	60.3384	35.1562	59.584	35.1562	60.2193	35.1562	59.6092	35.1562	60.1009	35.1562	59.6526	35.1562	59.9877	35.1562	59.7136	35.1562	59.8833	35.1562	59.7911
36.6211	61.0138	36.6211	60.922	36.6211	61.0945	36.6211	60.822	36.6211	61.1613	36.6211	60.717	36.6211	61.2116	36.6211	60.6097	36.6211	61.2434	36.6211	60.5033	36.6211	61.2548	36.6211	60.4003	36.6211	61.2449	36.6211	60.3034	36.6211	61.2133	36.6211	60.2148	36.6211	61.1605	36.6211	60.1367	36.6211	61.0882	36.6211	60.0708	36.6211	60.9986	36.6211	60.0188	36.6211	60.8951	36.6211	59.9821	36.6211	60.7814	36.6211	59.962	36.6211	60.6621	36.6211	59.9592	36.6211	60.5415	36.6211	59.9746	36.6211	60.4241	36.6211	60.0083	36.6211	60.314	36.6211	60.0602	36.6211	60.2148	36.6211	60.1295
38.0859	61.5727	38.0859	61.4773	38.0859	61.656	38.0859	61.3726	38.0859	61.7246	38.0859	61.2617	38.0859	61.7764	38.0859	61.1476	38.0859	61.8094	38.0859	61.0335	38.0859	61.8218	38.0859	60.9226	38.0859	61.8126	38.0859	60.8177	38.0859	61.781	38.0859	60.7214	38.0859	61.7271	38.0859	60.6359	38.0859	61.652	38.0859	60.5632	38.0859	61.5577	38.0859	60.5051	38.0859	61.4473	38.0859	60.4631	38.0859	61.3248	38.0859	60.4385	38.0859	61.1948	38.0859	60.4326	38.0859	61.0624	38.0859	60.4462	38.0859	60.933	38.0859	60.4802	38.0859	60.8115	38.0859	60.5348	38.0859	60.7024	38.0859	60.6093
39.5508	61.9471	39.5508	61.857	39.5508	62.0261	39.5508	61.7584	39.5508	62.0914	39.5508	61.6541	39.5508	62.1408	39.5508	61.5469	39.5508	62.1722	39.5508	61.4397	39.5508	62.1837	39.5508	61.3352	39.5508	62.1741	39.5508	61.2359	39.5508	62.1426	39.5508	61.1442	39.5508	62.0894	39.5508	61.0621	39.5508	62.0157	39.5508	60.9916	39.5508	61.9235	39.5508	60.9344	39.5508	61.816	39.5508	60.8919	39.5508	61.6972	39.5508	60.8658	39.5508	61.5718	39.5508	60.8572	39.5508	61.4447	39.5508	60.8673	39.5508	61.3211	39.5508	60.897	39.5508	61.2058	39.5508	60.9466	39.5508	61.1028	39.5508	61.0156
41.0156	62.5861	41.0156	62.4315	41.0156	62.7396	41.0156	62.2811	41.0156	62.8861	41.0156	62.1391	41.0156	63.0197	41.0156	62.0089	41.0156	63.1347	41.0156	61.8927	41.0156	63.2262	41.0156	61.7924	41.0156	63.2905	41.0156	61.7095	41.0156	63.3254	41.0156	61.6453	41.0156	63.3299	41.0156	61.601	41.0156	63.3042	41.0156	61.5781	41.0156	63.2498	41.0156	61.5775	41.0156	63.1691	41.0156	61.6001	41.0156	63.0652	41.0156	61.6464	41.0156	62.9419	41.0156	61.716	41.0156	62.8035	41.0156	61.808	41.0156	62.6545	41.0156	61.9201	41.0156	62.4996	41.0156	62.0494	41.0156	62.3439	41.0156	62.1922
42.4805	63.384	42.4805	63.2723	42.4805	63.4921	42.4805	63.1608	42.4805	63.5924	42.4805	63.0532	42.4805	63.6812	42.4805	62.953	42.4805	63.7548	42.4805	62.8629	42.4805	63.8106	42.4805	62.7854	42.4805	63.8463	42.4805	62.7227	42.4805	63.8611	42.4805	62.6762	42.4805	63.855	42.4805	62.647	42.4805	63.8289	42.4805	62.6357	42.4805	63.7847	42.4805	62.6422	42.4805	63.7248	42.4805	62.6661	42.4805	63.6518	42.4805	62.7062	42.4805	63.5687	42.4805	62.7612	42.4805	63.4781	42.4805	62.8291	42.4805	63.3825	42.4805	62.9078	42.4805	63.2843	42.4805	62.995	42.4805	63.1855	42.4805	63.0884
43.9453	63.8433	43.9453	63.7369	43.9453	63.9446	43.9453	63.6292	43.9453	64.0371	43.9453	63.5238	43.9453	64.1173	43.9453	63.4236	43.9453	64.1817	43.9453	63.3317	43.9453	64.228	43.9453	63.2503	43.9453	64.2542	43.9453	63.1815	43.9453	64.2596	43.9453	63.1269	43.9453	64.2443	43.9453	63.0877	43.9453	64.2094	43.9453	63.0649	43.9453	64.1568	43.9453	63.0587	43.9453	64.0891	43.9453	63.0691	43.9453	64.009	43.9453	63.0959	43.9453	63.9196	43.9453	63.138	43.9453	63.8238	43.9453	63.1943	43.9453	63.7245	43.9453	63.2633	43.9453	63.6243	43.9453	63.3429	43.9453	63.5257	43.9453	63.4311
45.4102	64.4821	45.4102	64.3758	45.4102	64.5829	45.4102	64.2679	45.4102	64.6746	45.4102	64.1616	45.4102	64.7535	45.4102	64.0601	45.4102	64.8163	45.4102	63.966	45.4102	64.8605	45.4102	63.8817	45.4102	64.8839	45.4102	63.8091	45.4102	64.8858	45.4102	63.7499	45.4102	64.8663	45.4102	63.7052	45.4102	64.8263	45.4102	63.676	45.4102	64.7677	45.4102	63.6629	45.4102	64.6934	45.4102	63.6661	45.4102	64.6062	45.4102	63.6856	45.4102	64.5096	45.4102	63.7209	45.4102	64.407	45.4102	63.7713	45.4102	64.3017	45.4102	63.8356	45.4102	64.1968	45.4102	63.9122	45.4102	64.0952	45.4102	63.9995
46.875	65.0262	46.875	64.9231	46.875	65.1238	46.875	64.818	46.875	65.2126	46.875	64.714	46.875	65.2892	46.875	64.6141	46.875	65.3505	46.875	64.521	46.875	65.3941	46.875	64.4371	46.875	65.418	46.875	64.3644	46.875	65.4212	46.875	64.3048	46.875	65.4034	46.875	64.2596	46.875	65.3656	46.875	64.2297	46.875	65.3094	46.875	64.2158	46.875	65.2373	46.875	64.2183	46.875	65.152	46.875	64.2371	46.875	65.057	46.875	64.2719	46.875	64.9555	46.875	64.3217	46.875	64.8508	46.875	64.3857	46.875	64.7462	46.875	64.4621	46.875	64.6448	46.875	64.5492
48.3398	65.6326	48.3398	65.5242	48.3398	65.7348	48.3398	65.4136	48.3398	65.8271	48.3398	65.3041	48.3398	65.9057	48.3398	65.1991	48.3398	65.9674	48.3398	65.1014	48.3398	66.0097	48.3398	65.0135	48.3398	66.0306	48.3398	64.9373	48.3398	66.0294	48.3398	64.8745	48.3398	66.0063	48.3398	64.8264	48.3398	65.9625	48.3398	64.794	48.3398	65.8999	48.3398	64.7779	48.3398	65.8213	48.3398	64.7782	48.3398	65.7299	48.3398	64.7951	48.3398	65.6291	48.3398	64.8282	48.3398	65.5225	48.3398	64.8768	48.3398	65.4134	48.3398	64.94	48.3398	65.3053	48.3398	65.0163	48.3398	65.2013	48.3398	65.1041
51.2695	66.7191	51.2695	66.6093	51.2695	66.8189	51.2695	66.4933	51.2695	66.9049	51.2695	66.3752	51.2695	66.9741	51.2695	66.2588	51.2695	67.0241	51.2695	66.148	51.2695	67.0533	51.2695	66.0459	51.2695	67.0606	51.2695	65.9553	51.2695	67.0461	51.2695	65.8785	51.2695	67.0104	51.2695	65.8173	51.2695	66.955	51.2695	65.7727	51.2695	66.882	51.2695	65.7455	51.2695	66.7941	51.2695	65.7363	51.2695	66.6942	51.2695	65.7449	51.2695	66.5858	51.2695	65.7713	51.2695	66.4723	51.2695	65.8148	51.2695	66.3573	51.2695	65.8746	51.2695	66.2443	51.2695	65.9494	51.2695	66.1367	51.2695	66.0375
52.7344	66.945	52.7344	66.838	52.7344	67.0415	52.7344	66.724	52.7344	67.1241	52.7344	66.6068	52.7344	67.19	52.7344	66.4903	52.7344	67.237	52.7344	66.3784	52.7344	67.2635	52.7344	66.2743	52.7344	67.2686	52.7344	66.1811	52.7344	67.2523	52.7344	66.1014	52.7344	67.2153	52.7344	66.0371	52.7344	67.1589	52.7344	65.9897	52.7344	67.0853	52.7344	65.9602	52.7344	66.9972	52.7344	65.9489	52.7344	66.8976	52.7344	65.956	52.7344	66.7897	52.7344	65.9813	52.7344	66.677	52.7344	66.0241	52.7344	66.5628	52.7344	66.0833	52.7344	66.4507	52.7344	66.1577	52.7344	66.3439	52.7344	66.2453
54.1992	67.3697	54.1992	67.2668	54.1992	67.4636	54.1992	67.1585	54.1992	67.5452	54.1992	67.0484	54.1992	67.6114	54.1992	66.94	54.1992	67.6598	54.1992	66.8368	54.1992	67.6886	54.1992	66.7419	54.1992	67.6966	54.1992	66.6578	54.1992	67.6837	54.1992	66.5868	54.1992	67.6503	54.1992	66.5306	54.1992	67.598	54.1992	66.4904	54.1992	67.5291	54.1992	66.4667	54.1992	67.4462	54.1992	66.4599	54.1992	67.3525	54.1992	66.4699	54.1992	67.2514	54.1992	66.4962	54.1992	67.1462	54.1992	66.5381	54.1992	67.0401	54.1992	66.5946	54.1992	66.9362	54.1992	66.6644	54.1992	66.8373	54.1992	66.7459
55.6641	68.0719	55.6641	67.9699	55.6641	68.1629	55.6641	67.8605	55.6641	68.2399	55.6641	67.7468	55.6641	68.2998	55.6641	67.6322	55.6641	68.3401	55.6641	67.5197	55.6641	68.3587	55.6641	67.4125	55.6641	68.3545	55.6641	67.3134	55.6641	68.3272	55.6641	67.2247	55.6641	68.2776	55.6641	67.149	55.6641	68.2073	55.6641	67.0879	55.6641	68.1191	55.6641	67.0431	55.6641	68.0164	55.6641	67.0156	55.6641	67.903	55.6641	67.0061	55.6641	67.7833	55.6641	67.0151	55.6641	67.6615	55.6641	67.0425	55.6641	67.5415	55.6641	67.0879	55.6641	67.4274	55.6641	67.1506	55.6641	67.3224	55.6641	67.2293
58.5938	68.6592	58.5938	68.5574	58.5938	68.7524	58.5938	68.45	58.5938	68.8336	58.5938	68.3405	58.5938	68.9001	58.5938	68.2323	58.5938	68.9494	58.5938	68.1285	58.5938	68.9798	58.5938	68.032	58.5938	68.9899	58.5938	67.9454	58.5938	68.9793	58.5938	67.8708	58.5938	68.9484	58.5938	67.81	58.5938	68.8981	58.5938	67.7645	58.5938	68.8302	58.5938	67.7354	58.5938	68.7471	58.5938	67.7234	58.5938	68.6515	58.5938	67.7288	58.5938	68.5466	58.5938	67.7519	58.5938	68.436	58.5938	67.7923	58.5938	68.3232	58.5938	67.8494	58.5938	68.2119	58.5938	67.9219	58.5938	68.1058	58.5938	68.0082
60.0586	68.9906	60.0586	68.8875	60.0586	69.0844	60.0586	68.7787	60.0586	69.166	60.0586	68.6675	60.0586	69.2324	60.0586	68.5574	60.0586	69.2814	60.0586	68.452	60.0586	69.3113	60.0586	68.3543	60.0586	69.3212	60.0586	68.2672	60.0586	69.3107	60.0586	68.1933	60.0586	69.2805	60.0586	68.1344	60.0586	69.2319	60.0586	68.0923	60.0586	69.1668	60.0586	68.068	60.0586	69.0878	60.0586	68.062	60.0586	68.9975	60.0586	68.0743	60.0586	68.8986	60.0586	68.1046	60.0586	68.7943	60.0586	68.152	60.0586	68.6872	60.0586	68.2149	60.0586	68.5805	60.0586	68.2916	60.0586	68.4771	60.0586	68.3799
62.9883	70.192	62.9883	70.0823	62.9883	70.2891	62.9883	69.9636	62.9883	70.3702	62.9883	69.8398	62.9883	70.4321	62.9883	69.7142	62.9883	70.472	62.9883	69.5905	62.9883	70.4879	62.9883	69.4719	62.9883	70.4788	62.9883	69.3615	62.9883	70.4447	62.9883	69.262	62.9883	70.3864	62.9883	69.176	62.9883	70.3062	62.9883	69.1056	62.9883	70.2069	62.9883	69.0527	62.9883	70.0924	62.9883	69.0185	62.9883	69.9669	62.9883	69.004	62.9883	69.8349	62.9883	69.0098	62.9883	69.7011	62.9883	69.0361	62.9883	69.57	62.9883	69.0824	62.9883	69.4457	62.9883	69.1481	62.9883	69.3319	62.9883	69.2319
64.4531	70.8655	64.4531	70.7577	64.4531	70.9582	64.4531	70.6383	64.4531	71.0324	64.4531	70.5111	64.4531	71.0853	64.4531	70.3795	64.4531	71.1146	64.4531	70.2474	64.4531	71.1186	64.4531	70.118	64.4531	71.0966	64.4531	69.9947	64.4531	71.0488	64.4531	69.8802	64.4531	70.9763	64.4531	69.7773	64.4531	70.8813	64.4531	69.6884	64.4531	70.7666	64.4531	69.6156	64.4531	70.636	64.4531	69.5611	64.4531	70.494	64.4531	69.5265	64.4531	70.3456	64.4531	69.5133	64.4531	70.1962	64.4531	69.523	64.4531	70.0512	64.4531	69.5563	64.4531	69.9161	64.4531	69.6135	64.4531	69.7957	64.4531	69.6939
67.3828	71.39	67.3828	71.2852	67.3828	71.4781	67.3828	71.1669	67.3828	71.5463	67.3828	71.0392	67.3828	71.5927	67.3828	70.9062	67.3828	71.6156	67.3828	70.772	67.3828	71.6144	67.3828	70.6406	67.3828	71.5892	67.3828	70.5159	67.3828	71.5407	67.3828	70.4012	67.3828	71.4705	67.3828	70.2994	67.3828	71.3806	67.3828	70.2131	67.3828	71.2736	67.3828	70.1444	67.3828	71.1527	67.3828	70.095	67.3828	71.0214	67.3828	70.0663	67.3828	70.8838	67.3828	70.0596	67.3828	70.7442	67.3828	70.0755	67.3828	70.6073	67.3828	70.1143	67.3828	70.4777	67.3828	70.1757	67.3828	70.3601	67.3828	70.2583
