"SPL Horizontal"
"On-Axis"		"10°"		"-10°"		"20°"		"-20°"		"30°"		"-30°"		"40°"		"-40°"		"50°"		"-50°"		"60°"		"-60°"		"70°"		"-70°"		"80°"		"-80°"		"90°"		"-90°"		"100°"		"-100°"		"110°"		"-110°"		"120°"		"-120°"		"130°"		"-130°"		"140°"		"-140°"		"150°"		"-150°"		"160°"		"-160°"		"170°"		"-170°"		"180°"
"Frequency / Hz"	"Sound Pressure Level / dB (re 20 µPa/V)  [2.83  V @ 1. m]"	"Frequency / Hz"	"Sound Pressure Level / dB (re 20 µPa/V)  [2.83  V @ 1. m]"	"Frequency / Hz"	"Sound Pressure Level / dB (re 20 µPa/V)  [2.83  V @ 1. m]"	"Frequency / Hz"	"Sound Pressure Level / dB (re 20 µPa/V)  [2.83  V @ 1. m]"	"Frequency / Hz"	"Sound Pressure Level / dB (re 20 µPa/V)  [2.83  V @ 1. m]"	"Frequency / Hz"	"Sound Pressure Level / dB (re 20 µPa/V)  [2.83  V @ 1. m]"	"Frequency / Hz"	"Sound Pressure Level / dB (re 20 µPa/V)  [2.83  V @ 1. m]"	"Frequency / Hz"	"Sound Pressure Level / dB (re 20 µPa/V)  [2.83  V @ 1. m]"	"Frequency / Hz"	"Sound Pressure Level / dB (re 20 µPa/V)  [2.83  V @ 1. m]"	"Frequency / Hz"	"Sound Pressure Level / dB (re 20 µPa/V)  [2.83  V @ 1. m]"	"Frequency / Hz"	"Sound Pressure Level / dB (re 20 µPa/V)  [2.83  V @ 1. m]"	"Frequency / Hz"	"Sound Pressure Level / dB (re 20 µPa/V)  [2.83  V @ 1. m]"	"Frequency / Hz"	"Sound Pressure Level / dB (re 20 µPa/V)  [2.83  V @ 1. m]"	"Frequency / Hz"	"Sound Pressure Level / dB (re 20 µPa/V)  [2.83  V @ 1. m]"	"Frequency / Hz"	"Sound Pressure Level / dB (re 20 µPa/V)  [2.83  V @ 1. m]"	"Frequency / Hz"	"Sound Pressure Level / dB (re 20 µPa/V)  [2.83  V @ 1. m]"	"Frequency / Hz"	"Sound Pressure Level / dB (re 20 µPa/V)  [2.83  V @ 1. m]"	"Frequency / Hz"	"Sound Pressure Level / dB (re 20 µPa/V)  [2.83  V @ 1. m]"	"Frequency / Hz"	"Sound Pressure Level / dB (re 20 µPa/V)  [2.83  V @ 1. m]"	"Frequency / Hz"	"Sound Pressure Level / dB (re 20 µPa/V)  [2.83  V @ 1. m]"	"Frequency / Hz"	"Sound Pressure Level / dB (re 20 µPa/V)  [2.83  V @ 1. m]"	"Frequency / Hz"	"Sound Pressure Level / dB (re 20 µPa/V)  [2.83  V @ 1. m]"	"Frequency / Hz"	"Sound Pressure Level / dB (re 20 µPa/V)  [2.83  V @ 1. m]"	"Frequency / Hz"	"Sound Pressure Level / dB (re 20 µPa/V)  [2.83  V @ 1. m]"	"Frequency / Hz"	"Sound Pressure Level / dB (re 20 µPa/V)  [2.83  V @ 1. m]"	"Frequency / Hz"	"Sound Pressure Level / dB (re 20 µPa/V)  [2.83  V @ 1. m]"	"Frequency / Hz"	"Sound Pressure Level / dB (re 20 µPa/V)  [2.83  V @ 1. m]"	"Frequency / Hz"	"Sound Pressure Level / dB (re 20 µPa/V)  [2.83  V @ 1. m]"	"Frequency / Hz"	"Sound Pressure Level / dB (re 20 µPa/V)  [2.83  V @ 1. m]"	"Frequency / Hz"	"Sound Pressure Level / dB (re 20 µPa/V)  [2.83  V @ 1. m]"	"Frequency / Hz"	"Sound Pressure Level / dB (re 20 µPa/V)  [2.83  V @ 1. m]"	"Frequency / Hz"	"Sound Pressure Level / dB (re 20 µPa/V)  [2.83  V @ 1. m]"	"Frequency / Hz"	"Sound Pressure Level / dB (re 20 µPa/V)  [2.83  V @ 1. m]"	"Frequency / Hz"	"Sound Pressure Level / dB (re 20 µPa/V)  [2.83  V @ 1. m]"	"Frequency / Hz"	"Sound Pressure Level / dB (re 20 µPa/V)  [2.83  V @ 1. m]"	"Frequency / Hz"	"Sound Pressure Level / dB (re 20 µPa/V)  [2.83  V @ 1. m]"
20.5078	52.2187	20.5078	52.1977	20.5078	52.2465	20.5078	52.1822	20.5078	52.2809	20.5078	52.1696	20.5078	52.3208	20.5078	52.1565	20.5078	52.3639	20.5078	52.1395	20.5078	52.4071	20.5078	52.1156	20.5078	52.4466	20.5078	52.0836	20.5078	52.4783	20.5078	52.0439	20.5078	52.4979	20.5078	51.9991	20.5078	52.5016	20.5078	51.9529	20.5078	52.4866	20.5078	51.9097	20.5078	52.4521	20.5078	51.8736	20.5078	52.399	20.5078	51.848	20.5078	52.3304	20.5078	51.8353	20.5078	52.251	20.5078	51.8373	20.5078	52.1665	20.5078	51.8552	20.5078	52.0829	20.5078	51.8897	20.5078	52.006	20.5078	51.9406
21.9727	55.1334	21.9727	55.1323	21.9727	55.1271	21.9727	55.1223	21.9727	55.115	21.9727	55.102	21.9727	55.0983	21.9727	55.0704	21.9727	55.0787	21.9727	55.0275	21.9727	55.0576	21.9727	54.9747	21.9727	55.0363	21.9727	54.9146	21.9727	55.016	21.9727	54.8511	21.9727	54.9972	21.9727	54.7888	21.9727	54.9794	21.9727	54.7321	21.9727	54.9617	21.9727	54.6847	21.9727	54.9424	21.9727	54.6494	21.9727	54.92	21.9727	54.6274	21.9727	54.893	21.9727	54.6191	21.9727	54.8608	21.9727	54.6239	21.9727	54.8238	21.9727	54.6406	21.9727	54.7834	21.9727	54.6675	21.9727	54.7419	21.9727	54.7022
23.4375	54.1293	23.4375	54.134	23.4375	54.1207	23.4375	54.133	23.4375	54.1097	23.4375	54.1248	23.4375	54.0976	23.4375	54.1078	23.4375	54.0855	23.4375	54.0809	23.4375	54.0747	23.4375	54.0439	23.4375	54.0658	23.4375	53.998	23.4375	54.0587	23.4375	53.9457	23.4375	54.0527	23.4375	53.8907	23.4375	54.0462	23.4375	53.8377	23.4375	54.0373	23.4375	53.7914	23.4375	54.0244	23.4375	53.7557	23.4375	54.0062	23.4375	53.7332	23.4375	53.9824	23.4375	53.7247	23.4375	53.9531	23.4375	53.7297	23.4375	53.9192	23.4375	53.7466	23.4375	53.8821	23.4375	53.7731	23.4375	53.8437	23.4375	53.8064
24.9023	55.8068	24.9023	55.7742	24.9023	55.8359	24.9023	55.7381	24.9023	55.8612	24.9023	55.6981	24.9023	55.882	24.9023	55.6543	24.9023	55.8966	24.9023	55.6068	24.9023	55.9035	24.9023	55.5564	24.9023	55.9008	24.9023	55.5041	24.9023	55.8873	24.9023	55.4516	24.9023	55.8624	24.9023	55.4006	24.9023	55.8263	24.9023	55.3533	24.9023	55.7802	24.9023	55.3117	24.9023	55.7254	24.9023	55.2774	24.9023	55.664	24.9023	55.2523	24.9023	55.5983	24.9023	55.2375	24.9023	55.5308	24.9023	55.2344	24.9023	55.4643	24.9023	55.2436	24.9023	55.4018	24.9023	55.2657	24.9023	55.3463	24.9023	55.3003
26.3672	55.7428	26.3672	55.7372	26.3672	55.7481	26.3672	55.7308	26.3672	55.7531	26.3672	55.7229	26.3672	55.7572	26.3672	55.7122	26.3672	55.7594	26.3672	55.6979	26.3672	55.7589	26.3672	55.6792	26.3672	55.7545	26.3672	55.656	26.3672	55.7456	26.3672	55.6288	26.3672	55.7316	26.3672	55.5986	26.3672	55.7123	26.3672	55.567	26.3672	55.688	26.3672	55.5358	26.3672	55.6595	26.3672	55.5068	26.3672	55.6276	26.3672	55.4817	26.3672	55.5939	26.3672	55.4618	26.3672	55.5598	26.3672	55.4484	26.3672	55.5271	26.3672	55.4425	26.3672	55.4975	26.3672	55.4446	26.3672	55.473	26.3672	55.455
27.832	56.666	27.832	56.659	27.832	56.6682	27.832	56.6465	27.832	56.6657	27.832	56.6281	27.832	56.6587	27.832	56.6032	27.832	56.6469	27.832	56.5717	27.832	56.6296	27.832	56.5338	27.832	56.6062	27.832	56.4903	27.832	56.5761	27.832	56.4424	27.832	56.5391	27.832	56.3917	27.832	56.4957	27.832	56.3402	27.832	56.4471	27.832	56.2899	27.832	56.3952	27.832	56.2426	27.832	56.3419	27.832	56.2003	27.832	56.2897	27.832	56.1647	27.832	56.2406	27.832	56.1374	27.832	56.197	27.832	56.1199	27.832	56.1609	27.832	56.1132	27.832	56.1341	27.832	56.1179
29.2969	57.0329	29.2969	57.0408	29.2969	57.0171	29.2969	57.0398	29.2969	56.9946	29.2969	57.0291	29.2969	56.9663	29.2969	57.008	29.2969	56.9332	29.2969	56.9769	29.2969	56.8962	29.2969	56.9364	29.2969	56.8561	29.2969	56.8882	29.2969	56.8134	29.2969	56.8342	29.2969	56.7689	29.2969	56.7769	29.2969	56.7229	29.2969	56.7188	29.2969	56.6761	29.2969	56.662	29.2969	56.6294	29.2969	56.6087	29.2969	56.5839	29.2969	56.5603	29.2969	56.5412	29.2969	56.5181	29.2969	56.5031	29.2969	56.483	29.2969	56.4715	29.2969	56.4562	29.2969	56.4481	29.2969	56.4386	29.2969	56.4344	29.2969	56.4312
30.7617	58.4321	30.7617	58.43	30.7617	58.4298	30.7617	58.4228	30.7617	58.424	30.7617	58.4096	30.7617	58.4151	30.7617	58.3898	30.7617	58.4036	30.7617	58.3631	30.7617	58.3894	30.7617	58.3297	30.7617	58.3722	30.7617	58.2903	30.7617	58.3517	30.7617	58.2462	30.7617	58.3273	30.7617	58.1997	30.7617	58.2989	30.7617	58.1531	30.7617	58.2669	30.7617	58.1091	30.7617	58.232	30.7617	58.0701	30.7617	58.1951	30.7617	58.0381	30.7617	58.1576	30.7617	58.0143	30.7617	58.1209	30.7617	57.9996	30.7617	58.0863	30.7617	57.9941	30.7617	58.0554	30.7617	57.9978	30.7617	58.0295	30.7617	58.0099
32.2266	59.1049	32.2266	59.1014	32.2266	59.0969	32.2266	59.0858	32.2266	59.078	32.2266	59.0582	32.2266	59.0492	32.2266	59.019	32.2266	59.0112	32.2266	58.9691	32.2266	58.9651	32.2266	58.9101	32.2266	58.9118	32.2266	58.8438	32.2266	58.8525	32.2266	58.7724	32.2266	58.7885	32.2266	58.6986	32.2266	58.7215	32.2266	58.625	32.2266	58.6534	32.2266	58.5544	32.2266	58.5864	32.2266	58.4892	32.2266	58.5225	32.2266	58.4317	32.2266	58.4639	32.2266	58.3835	32.2266	58.4126	32.2266	58.346	32.2266	58.3699	32.2266	58.3201	32.2266	58.3371	32.2266	58.3063	32.2266	58.3152	32.2266	58.3047
33.6914	59.5636	33.6914	59.5702	33.6914	59.5493	33.6914	59.5689	33.6914	59.5279	33.6914	59.5597	33.6914	59.5001	33.6914	59.5429	33.6914	59.4663	33.6914	59.5193	33.6914	59.4271	33.6914	59.4896	33.6914	59.3832	33.6914	59.4548	33.6914	59.3355	33.6914	59.4161	33.6914	59.2852	33.6914	59.3742	33.6914	59.2337	33.6914	59.3302	33.6914	59.1829	33.6914	59.2848	33.6914	59.1349	33.6914	59.2387	33.6914	59.0917	33.6914	59.193	33.6914	59.0552	33.6914	59.1488	33.6914	59.0272	33.6914	59.1075	33.6914	59.009	33.6914	59.0707	33.6914	59.0013	33.6914	59.0402	33.6914	59.0044	33.6914	59.0176
35.1562	60.5827	35.1562	60.5719	35.1562	60.5823	35.1562	60.5506	35.1562	60.5703	35.1562	60.5202	35.1562	60.547	35.1562	60.482	35.1562	60.513	35.1562	60.4374	35.1562	60.4692	35.1562	60.3875	35.1562	60.4166	35.1562	60.3332	35.1562	60.3562	35.1562	60.2752	35.1562	60.2895	35.1562	60.2145	35.1562	60.2181	35.1562	60.152	35.1562	60.1442	35.1562	60.0889	35.1562	60.0705	35.1562	60.0268	35.1562	60	35.1562	59.9677	35.1562	59.936	35.1562	59.9136	35.1562	59.8812	35.1562	59.8669	35.1562	59.838	35.1562	59.8296	35.1562	59.8081	35.1562	59.8039	35.1562	59.7924	35.1562	59.7911
36.6211	61.0138	36.6211	61.0313	36.6211	60.9835	36.6211	61.0356	36.6211	60.9412	36.6211	61.027	36.6211	60.8879	36.6211	61.0057	36.6211	60.8251	36.6211	60.9724	36.6211	60.7545	36.6211	60.9277	36.6211	60.678	36.6211	60.8726	36.6211	60.5976	36.6211	60.8081	36.6211	60.5157	36.6211	60.7359	36.6211	60.4349	36.6211	60.658	36.6211	60.3577	36.6211	60.5768	36.6211	60.2869	36.6211	60.4949	36.6211	60.2249	36.6211	60.4149	36.6211	60.1739	36.6211	60.3396	36.6211	60.1357	36.6211	60.2713	36.6211	60.1117	36.6211	60.2123	36.6211	60.1026	36.6211	60.1645	36.6211	60.1086	36.6211	60.1295
38.0859	61.5727	38.0859	61.5589	38.0859	61.5718	38.0859	61.5309	38.0859	61.5565	38.0859	61.4898	38.0859	61.5276	38.0859	61.4375	38.0859	61.4861	38.0859	61.3761	38.0859	61.433	38.0859	61.3079	38.0859	61.3694	38.0859	61.2354	38.0859	61.2961	38.0859	61.1606	38.0859	61.2146	38.0859	61.0853	38.0859	61.1267	38.0859	61.011	38.0859	61.0353	38.0859	60.9391	38.0859	60.9438	38.0859	60.8704	38.0859	60.8566	38.0859	60.8063	38.0859	60.7778	38.0859	60.7479	38.0859	60.7113	38.0859	60.697	38.0859	60.66	38.0859	60.6554	38.0859	60.6257	38.0859	60.6254	38.0859	60.609	38.0859	60.6093
39.5508	61.9471	39.5508	61.9476	39.5508	61.9331	39.5508	61.9352	39.5508	61.9056	39.5508	61.9111	39.5508	61.865	39.5508	61.8769	39.5508	61.8121	39.5508	61.8344	39.5508	61.7478	39.5508	61.7852	39.5508	61.6735	39.5508	61.7303	39.5508	61.5907	39.5508	61.6707	39.5508	61.5014	39.5508	61.6068	39.5508	61.4085	39.5508	61.5389	39.5508	61.3155	39.5508	61.4678	39.5508	61.2266	39.5508	61.3941	39.5508	61.1462	39.5508	61.3194	39.5508	61.0787	39.5508	61.2456	39.5508	61.0276	39.5508	61.1753	39.5508	60.9953	39.5508	61.1113	39.5508	60.9829	39.5508	61.057	39.5508	60.9902	39.5508	61.0156
41.0156	62.5861	41.0156	62.5469	41.0156	62.6223	41.0156	62.5033	41.0156	62.6562	41.0156	62.4539	41.0156	62.6876	41.0156	62.3972	41.0156	62.7152	41.0156	62.3324	41.0156	62.737	41.0156	62.2604	41.0156	62.7507	41.0156	62.1833	41.0156	62.7542	41.0156	62.1054	41.0156	62.7462	41.0156	62.0325	41.0156	62.7266	41.0156	61.971	41.0156	62.6961	41.0156	61.9267	41.0156	62.6563	41.0156	61.904	41.0156	62.6083	41.0156	61.9053	41.0156	62.5533	41.0156	61.9302	41.0156	62.4919	41.0156	61.9761	41.0156	62.4243	41.0156	62.0387	41.0156	62.3509	41.0156	62.1126	41.0156	62.2728	41.0156	62.1922
42.4805	63.384	42.4805	63.368	42.4805	63.3962	42.4805	63.348	42.4805	63.4044	42.4805	63.3241	42.4805	63.4084	42.4805	63.2962	42.4805	63.408	42.4805	63.2645	42.4805	63.4032	42.4805	63.2298	42.4805	63.3939	42.4805	63.193	42.4805	63.3803	42.4805	63.156	42.4805	63.3628	42.4805	63.1205	42.4805	63.3419	42.4805	63.0888	42.4805	63.3183	42.4805	63.0625	42.4805	63.2925	42.4805	63.0431	42.4805	63.2649	42.4805	63.0317	42.4805	63.2359	42.4805	63.0285	42.4805	63.2059	42.4805	63.0335	42.4805	63.1754	42.4805	63.0459	42.4805	63.145	42.4805	63.0646	42.4805	63.1156	42.4805	63.0884
43.9453	63.8433	43.9453	63.8304	43.9453	63.8499	43.9453	63.8118	43.9453	63.8501	43.9453	63.7877	43.9453	63.8437	43.9453	63.7587	43.9453	63.8307	43.9453	63.7253	43.9453	63.8115	43.9453	63.6884	43.9453	63.7868	43.9453	63.6491	43.9453	63.7575	43.9453	63.6089	43.9453	63.7247	43.9453	63.5692	43.9453	63.6899	43.9453	63.5316	43.9453	63.6541	43.9453	63.4976	43.9453	63.6185	43.9453	63.4684	43.9453	63.5838	43.9453	63.4452	43.9453	63.5508	43.9453	63.4285	43.9453	63.52	43.9453	63.4189	43.9453	63.4921	43.9453	63.4165	43.9453	63.4675	43.9453	63.4207	43.9453	63.447	43.9453	63.4311
45.4102	64.4821	45.4102	64.4717	45.4102	64.4851	45.4102	64.4546	45.4102	64.4806	45.4102	64.4313	45.4102	64.4682	45.4102	64.4026	45.4102	64.4481	45.4102	64.3692	45.4102	64.421	45.4102	64.3319	45.4102	64.3876	45.4102	64.2917	45.4102	64.3493	45.4102	64.2496	45.4102	64.3076	45.4102	64.2068	45.4102	64.2642	45.4102	64.1647	45.4102	64.2206	45.4102	64.1248	45.4102	64.1784	45.4102	64.0885	45.4102	64.1388	45.4102	64.0571	45.4102	64.1029	45.4102	64.0317	45.4102	64.0714	45.4102	64.0131	45.4102	64.0448	45.4102	64.0015	45.4102	64.0238	45.4102	63.997	45.4102	64.0085	45.4102	63.9995
46.875	65.0262	46.875	65.0154	46.875	65.0298	46.875	64.9978	46.875	65.0261	46.875	64.9738	46.875	65.0152	46.875	64.944	46.875	64.9973	46.875	64.9092	46.875	64.9727	46.875	64.8703	46.875	64.9423	46.875	64.8285	46.875	64.9068	46.875	64.785	46.875	64.8675	46.875	64.7413	46.875	64.8257	46.875	64.699	46.875	64.7829	46.875	64.6595	46.875	64.7406	46.875	64.6244	46.875	64.7003	46.875	64.5948	46.875	64.663	46.875	64.5716	46.875	64.6297	46.875	64.5554	46.875	64.6012	46.875	64.5463	46.875	64.578	46.875	64.5443	46.875	64.5605	46.875	64.5492
48.3398	65.6326	48.3398	65.6307	48.3398	65.6262	48.3398	65.6206	48.3398	65.6119	48.3398	65.6026	48.3398	65.59	48.3398	65.5775	48.3398	65.5614	48.3398	65.5459	48.3398	65.5269	48.3398	65.5088	48.3398	65.4877	48.3398	65.4673	48.3398	65.4449	48.3398	65.4227	48.3398	65.3998	48.3398	65.3764	48.3398	65.3538	48.3398	65.3297	48.3398	65.3082	48.3398	65.2842	48.3398	65.2646	48.3398	65.2414	48.3398	65.2244	48.3398	65.2027	48.3398	65.1886	48.3398	65.1692	48.3398	65.1582	48.3398	65.142	48.3398	65.1341	48.3398	65.1219	48.3398	65.1168	48.3398	65.1092	48.3398	65.1067	48.3398	65.1041
51.2695	66.7191	51.2695	66.7173	51.2695	66.7093	51.2695	66.7038	51.2695	66.6884	51.2695	66.6791	51.2695	66.6573	51.2695	66.6441	51.2695	66.6174	51.2695	66.6003	51.2695	66.5703	51.2695	66.5494	51.2695	66.5178	51.2695	66.4933	51.2695	66.4617	51.2695	66.434	51.2695	66.4039	51.2695	66.3734	51.2695	66.346	51.2695	66.3135	51.2695	66.2897	51.2695	66.256	51.2695	66.2364	51.2695	66.2027	51.2695	66.1872	51.2695	66.1551	51.2695	66.1435	51.2695	66.1143	51.2695	66.1062	51.2695	66.0816	51.2695	66.0763	51.2695	66.0576	51.2695	66.0545	51.2695	66.0429	51.2695	66.0414	51.2695	66.0375
52.7344	66.945	52.7344	66.9284	52.7344	66.9499	52.7344	66.9005	52.7344	66.9432	52.7344	66.862	52.7344	66.9252	52.7344	66.8142	52.7344	66.8967	52.7344	66.7589	52.7344	66.8589	52.7344	66.6981	52.7344	66.813	52.7344	66.6342	52.7344	66.7607	52.7344	66.5694	52.7344	66.7037	52.7344	66.5061	52.7344	66.6439	52.7344	66.4463	52.7344	66.5831	52.7344	66.3918	52.7344	66.523	52.7344	66.3441	52.7344	66.4655	52.7344	66.3044	52.7344	66.4119	52.7344	66.2735	52.7344	66.3636	52.7344	66.252	52.7344	66.3219	52.7344	66.2401	52.7344	66.2878	52.7344	66.2379	52.7344	66.2621	52.7344	66.2453
54.1992	67.3697	54.1992	67.3705	54.1992	67.3588	54.1992	67.3608	54.1992	67.3382	54.1992	67.3408	54.1992	67.309	54.1992	67.3112	54.1992	67.2721	54.1992	67.2729	54.1992	67.2289	54.1992	67.2274	54.1992	67.1808	54.1992	67.1764	54.1992	67.1291	54.1992	67.1217	54.1992	67.0755	54.1992	67.0653	54.1992	67.0216	54.1992	67.009	54.1992	66.969	54.1992	66.955	54.1992	66.9193	54.1992	66.9048	54.1992	66.8739	54.1992	66.8601	54.1992	66.8341	54.1992	66.8219	54.1992	66.8009	54.1992	66.791	54.1992	66.775	54.1992	66.7679	54.1992	66.7571	54.1992	66.7528	54.1992	66.7474	54.1992	66.7459
55.6641	68.0719	55.6641	68.0775	55.6641	68.053	55.6641	68.0695	55.6641	68.0217	55.6641	68.0479	55.6641	67.9792	55.6641	68.0133	55.6641	67.9266	55.6641	67.967	55.6641	67.8656	55.6641	67.9104	55.6641	67.7979	55.6641	67.8456	55.6641	67.7255	55.6641	67.7749	55.6641	67.6507	55.6641	67.7005	55.6641	67.5759	55.6641	67.6251	55.6641	67.5037	55.6641	67.5509	55.6641	67.4363	55.6641	67.4804	55.6641	67.376	55.6641	67.4156	55.6641	67.3243	55.6641	67.3585	55.6641	67.2826	55.6641	67.3104	55.6641	67.2519	55.6641	67.2724	55.6641	67.2326	55.6641	67.2452	55.6641	67.2251	55.6641	67.2293
58.5938	68.6592	58.5938	68.6762	58.5938	68.6338	58.5938	68.6843	58.5938	68.6004	58.5938	68.6835	58.5938	68.5597	58.5938	68.6737	58.5938	68.5124	58.5938	68.6549	58.5938	68.4596	58.5938	68.6275	58.5938	68.4026	58.5938	68.5916	58.5938	68.3429	58.5938	68.5477	58.5938	68.2822	58.5938	68.4965	58.5938	68.2224	58.5938	68.4391	58.5938	68.1654	58.5938	68.3772	58.5938	68.1133	58.5938	68.3127	58.5938	68.0678	58.5938	68.2481	58.5938	68.0306	58.5938	68.186	58.5938	68.0033	58.5938	68.129	58.5938	67.9868	58.5938	68.0792	58.5938	67.982	58.5938	68.0385	58.5938	67.9892	58.5938	68.0082
60.0586	68.9906	60.0586	68.9996	60.0586	68.9708	60.0586	68.9981	60.0586	68.9406	60.0586	68.9866	60.0586	68.9006	60.0586	68.966	60.0586	68.8522	60.0586	68.9376	60.0586	68.797	60.0586	68.9026	60.0586	68.7371	60.0586	68.8621	60.0586	68.6749	60.0586	68.8174	60.0586	68.613	60.0586	68.7694	60.0586	68.5539	60.0586	68.7194	60.0586	68.5	60.0586	68.6682	60.0586	68.453	60.0586	68.6171	60.0586	68.4145	60.0586	68.5671	60.0586	68.3853	60.0586	68.5196	60.0586	68.3655	60.0586	68.4759	60.0586	68.3554	60.0586	68.4373	60.0586	68.3546	60.0586	68.4049	60.0586	68.3629	60.0586	68.3799
62.9883	70.192	62.9883	70.183	62.9883	70.1862	62.9883	70.1598	62.9883	70.1657	62.9883	70.1234	62.9883	70.1306	62.9883	70.0752	62.9883	70.082	62.9883	70.0169	62.9883	70.0212	62.9883	69.9502	62.9883	69.95	62.9883	69.8771	62.9883	69.8707	62.9883	69.7995	62.9883	69.7862	62.9883	69.7195	62.9883	69.6993	62.9883	69.639	62.9883	69.6131	62.9883	69.5603	62.9883	69.5306	62.9883	69.4855	62.9883	69.4545	62.9883	69.4168	62.9883	69.387	62.9883	69.3564	62.9883	69.3301	62.9883	69.3062	62.9883	69.2851	62.9883	69.2679	62.9883	69.2533	62.9883	69.2429	62.9883	69.2354	62.9883	69.2319
64.4531	70.8655	64.4531	70.8658	64.4531	70.8485	64.4531	70.8495	64.4531	70.8148	64.4531	70.8174	64.4531	70.7652	64.4531	70.7705	64.4531	70.7008	64.4531	70.7102	64.4531	70.6235	64.4531	70.6381	64.4531	70.5353	64.4531	70.556	64.4531	70.4389	64.4531	70.4657	64.4531	70.3372	64.4531	70.3696	64.4531	70.2334	64.4531	70.2699	64.4531	70.1306	64.4531	70.1694	64.4531	70.0322	64.4531	70.0709	64.4531	69.9411	64.4531	69.9775	64.4531	69.8604	64.4531	69.8924	64.4531	69.7927	64.4531	69.8188	64.4531	69.7405	64.4531	69.7597	64.4531	69.7057	64.4531	69.7174	64.4531	69.6899	64.4531	69.6939
67.3828	71.39	67.3828	71.3958	67.3828	71.3666	67.3828	71.3839	67.3828	71.3259	67.3828	71.3552	67.3828	71.2691	67.3828	71.3107	67.3828	71.198	67.3828	71.2523	67.3828	71.1147	67.3828	71.1819	67.3828	71.022	67.3828	71.1018	67.3828	70.9228	67.3828	71.0144	67.3828	70.8204	67.3828	70.9222	67.3828	70.7181	67.3828	70.8276	67.3828	70.619	67.3828	70.7329	67.3828	70.5262	67.3828	70.6403	67.3828	70.4427	67.3828	70.552	67.3828	70.3711	67.3828	70.4703	67.3828	70.3138	67.3828	70.3977	67.3828	70.2728	67.3828	70.3367	67.3828	70.2495	67.3828	70.2895	67.3828	70.2447	67.3828	70.2583
