"SPL Horizontal"
"On-Axis"		"10°"		"-10°"		"20°"		"-20°"		"30°"		"-30°"		"40°"		"-40°"		"50°"		"-50°"		"60°"		"-60°"		"70°"		"-70°"		"80°"		"-80°"		"90°"		"-90°"		"100°"		"-100°"		"110°"		"-110°"		"120°"		"-120°"		"130°"		"-130°"		"140°"		"-140°"		"150°"		"-150°"		"160°"		"-160°"		"170°"		"-170°"		"180°"
"Frequency / Hz"	"Sound Pressure Level / dB (re 20 µPa/V)  [2.83  V @ 1. m]"	"Frequency / Hz"	"Sound Pressure Level / dB (re 20 µPa/V)  [2.83  V @ 1. m]"	"Frequency / Hz"	"Sound Pressure Level / dB (re 20 µPa/V)  [2.83  V @ 1. m]"	"Frequency / Hz"	"Sound Pressure Level / dB (re 20 µPa/V)  [2.83  V @ 1. m]"	"Frequency / Hz"	"Sound Pressure Level / dB (re 20 µPa/V)  [2.83  V @ 1. m]"	"Frequency / Hz"	"Sound Pressure Level / dB (re 20 µPa/V)  [2.83  V @ 1. m]"	"Frequency / Hz"	"Sound Pressure Level / dB (re 20 µPa/V)  [2.83  V @ 1. m]"	"Frequency / Hz"	"Sound Pressure Level / dB (re 20 µPa/V)  [2.83  V @ 1. m]"	"Frequency / Hz"	"Sound Pressure Level / dB (re 20 µPa/V)  [2.83  V @ 1. m]"	"Frequency / Hz"	"Sound Pressure Level / dB (re 20 µPa/V)  [2.83  V @ 1. m]"	"Frequency / Hz"	"Sound Pressure Level / dB (re 20 µPa/V)  [2.83  V @ 1. m]"	"Frequency / Hz"	"Sound Pressure Level / dB (re 20 µPa/V)  [2.83  V @ 1. m]"	"Frequency / Hz"	"Sound Pressure Level / dB (re 20 µPa/V)  [2.83  V @ 1. m]"	"Frequency / Hz"	"Sound Pressure Level / dB (re 20 µPa/V)  [2.83  V @ 1. m]"	"Frequency / Hz"	"Sound Pressure Level / dB (re 20 µPa/V)  [2.83  V @ 1. m]"	"Frequency / Hz"	"Sound Pressure Level / dB (re 20 µPa/V)  [2.83  V @ 1. m]"	"Frequency / Hz"	"Sound Pressure Level / dB (re 20 µPa/V)  [2.83  V @ 1. m]"	"Frequency / Hz"	"Sound Pressure Level / dB (re 20 µPa/V)  [2.83  V @ 1. m]"	"Frequency / Hz"	"Sound Pressure Level / dB (re 20 µPa/V)  [2.83  V @ 1. m]"	"Frequency / Hz"	"Sound Pressure Level / dB (re 20 µPa/V)  [2.83  V @ 1. m]"	"Frequency / Hz"	"Sound Pressure Level / dB (re 20 µPa/V)  [2.83  V @ 1. m]"	"Frequency / Hz"	"Sound Pressure Level / dB (re 20 µPa/V)  [2.83  V @ 1. m]"	"Frequency / Hz"	"Sound Pressure Level / dB (re 20 µPa/V)  [2.83  V @ 1. m]"	"Frequency / Hz"	"Sound Pressure Level / dB (re 20 µPa/V)  [2.83  V @ 1. m]"	"Frequency / Hz"	"Sound Pressure Level / dB (re 20 µPa/V)  [2.83  V @ 1. m]"	"Frequency / Hz"	"Sound Pressure Level / dB (re 20 µPa/V)  [2.83  V @ 1. m]"	"Frequency / Hz"	"Sound Pressure Level / dB (re 20 µPa/V)  [2.83  V @ 1. m]"	"Frequency / Hz"	"Sound Pressure Level / dB (re 20 µPa/V)  [2.83  V @ 1. m]"	"Frequency / Hz"	"Sound Pressure Level / dB (re 20 µPa/V)  [2.83  V @ 1. m]"	"Frequency / Hz"	"Sound Pressure Level / dB (re 20 µPa/V)  [2.83  V @ 1. m]"	"Frequency / Hz"	"Sound Pressure Level / dB (re 20 µPa/V)  [2.83  V @ 1. m]"	"Frequency / Hz"	"Sound Pressure Level / dB (re 20 µPa/V)  [2.83  V @ 1. m]"	"Frequency / Hz"	"Sound Pressure Level / dB (re 20 µPa/V)  [2.83  V @ 1. m]"	"Frequency / Hz"	"Sound Pressure Level / dB (re 20 µPa/V)  [2.83  V @ 1. m]"	"Frequency / Hz"	"Sound Pressure Level / dB (re 20 µPa/V)  [2.83  V @ 1. m]"	"Frequency / Hz"	"Sound Pressure Level / dB (re 20 µPa/V)  [2.83  V @ 1. m]"
20.5078	73.8493	20.5078	73.8137	20.5078	73.9126	20.5078	73.8072	20.5078	74.0013	20.5078	73.8298	20.5078	74.1121	20.5078	73.8804	20.5078	74.2409	20.5078	73.9569	20.5078	74.383	20.5078	74.0559	20.5078	74.5333	20.5078	74.1733	20.5078	74.6866	20.5078	74.3049	20.5078	74.8376	20.5078	74.4461	20.5078	74.9816	20.5078	74.5929	20.5078	75.1141	20.5078	74.7409	20.5078	75.2318	20.5078	74.8861	20.5078	75.3318	20.5078	75.0243	20.5078	75.4121	20.5078	75.1513	20.5078	75.4714	20.5078	75.2635	20.5078	75.5086	20.5078	75.3578	20.5078	75.5234	20.5078	75.432	20.5078	75.5154	20.5078	75.4848
21.9727	76.7384	21.9727	76.7271	21.9727	76.7769	21.9727	76.7431	21.9727	76.842	21.9727	76.7859	21.9727	76.9323	21.9727	76.8542	21.9727	77.0457	21.9727	76.946	21.9727	77.1794	21.9727	77.0585	21.9727	77.3296	21.9727	77.1883	21.9727	77.4915	21.9727	77.3313	21.9727	77.6597	21.9727	77.4833	21.9727	77.828	21.9727	77.6396	21.9727	77.9901	21.9727	77.7953	21.9727	78.1396	21.9727	77.9457	21.9727	78.2711	21.9727	78.0862	21.9727	78.38	21.9727	78.2129	21.9727	78.4632	21.9727	78.3225	21.9727	78.5194	21.9727	78.4127	21.9727	78.5484	21.9727	78.4817	21.9727	78.5509	21.9727	78.5282
23.4375	78.4415	23.4375	78.441	23.4375	78.4679	23.4375	78.4665	23.4375	78.5195	23.4375	78.5175	23.4375	78.5949	23.4375	78.5927	23.4375	78.6923	23.4375	78.69	23.4375	78.8091	23.4375	78.8066	23.4375	78.942	23.4375	78.9392	23.4375	79.0872	23.4375	79.0834	23.4375	79.2402	23.4375	79.2345	23.4375	79.3955	23.4375	79.3874	23.4375	79.5476	23.4375	79.5367	23.4375	79.6904	23.4375	79.6769	23.4375	79.8187	23.4375	79.8036	23.4375	79.9282	23.4375	79.9127	23.4375	80.0161	23.4375	80.0019	23.4375	80.081	23.4375	80.0696	23.4375	80.123	23.4375	80.1156	23.4375	80.1424	23.4375	80.1398
24.9023	81.0193	24.9023	81.0188	24.9023	81.0462	24.9023	81.0447	24.9023	81.0989	24.9023	81.0965	24.9023	81.1761	24.9023	81.1732	24.9023	81.2764	24.9023	81.273	24.9023	81.3973	24.9023	81.3933	24.9023	81.536	24.9023	81.5307	24.9023	81.6885	24.9023	81.6812	24.9023	81.8502	24.9023	81.8397	24.9023	82.0155	24.9023	82.0007	24.9023	82.1781	24.9023	82.1587	24.9023	82.3316	24.9023	82.3078	24.9023	82.4702	24.9023	82.4431	24.9023	82.5887	24.9023	82.5605	24.9023	82.6838	24.9023	82.6572	24.9023	82.7536	24.9023	82.7318	24.9023	82.7978	24.9023	82.7834	24.9023	82.8169	24.9023	82.8119
26.3672	83.8124	26.3672	83.8146	26.3672	83.837	26.3672	83.8434	26.3672	83.888	26.3672	83.8981	26.3672	83.9643	26.3672	83.9775	26.3672	84.0641	26.3672	84.0794	26.3672	84.1851	26.3672	84.201	26.3672	84.3238	26.3672	84.3388	26.3672	84.4761	26.3672	84.4884	26.3672	84.6367	26.3672	84.6449	26.3672	84.8002	26.3672	84.8027	26.3672	84.9601	26.3672	84.9564	26.3672	85.1105	26.3672	85.1007	26.3672	85.2457	26.3672	85.2308	26.3672	85.3611	26.3672	85.3432	26.3672	85.4537	26.3672	85.4354	26.3672	85.5218	26.3672	85.506	26.3672	85.5653	26.3672	85.5546	26.3672	85.5847	26.3672	85.5809
27.832	86.4549	27.832	86.4578	27.832	86.4785	27.832	86.4873	27.832	86.5282	27.832	86.5428	27.832	86.6028	27.832	86.6232	27.832	86.7009	27.832	86.7268	27.832	86.82	27.832	86.8511	27.832	86.9573	27.832	86.9927	27.832	87.1088	27.832	87.1474	27.832	87.2698	27.832	87.3102	27.832	87.4348	27.832	87.4754	27.832	87.5977	27.832	87.6367	27.832	87.7523	27.832	87.788	27.832	87.8927	27.832	87.9239	27.832	88.0142	27.832	88.04	27.832	88.1134	27.832	88.1334	27.832	88.1887	27.832	88.2027	27.832	88.2394	27.832	88.2477	27.832	88.266	27.832	88.2687
29.2969	88.7837	29.2969	88.7869	29.2969	88.8064	29.2969	88.8159	29.2969	88.8546	29.2969	88.8701	29.2969	88.9274	29.2969	88.9487	29.2969	89.0233	29.2969	89.0498	29.2969	89.1402	29.2969	89.1711	29.2969	89.2751	29.2969	89.3093	29.2969	89.4244	29.2969	89.4602	29.2969	89.5833	29.2969	89.619	29.2969	89.7463	29.2969	89.7801	29.2969	89.9073	29.2969	89.9376	29.2969	90.0601	29.2969	90.0856	29.2969	90.1989	29.2969	90.2189	29.2969	90.3188	29.2969	90.3334	29.2969	90.4164	29.2969	90.4263	29.2969	90.4901	29.2969	90.4961	29.2969	90.5391	29.2969	90.5422	29.2969	90.5639	29.2969	90.5648
30.7617	89.932	30.7617	89.9384	30.7617	89.9516	30.7617	89.9706	30.7617	89.9968	30.7617	90.0283	30.7617	90.0669	30.7617	90.1104	30.7617	90.1605	30.7617	90.2152	30.7617	90.2756	30.7617	90.3406	30.7617	90.4098	30.7617	90.4834	30.7617	90.5595	30.7617	90.6396	30.7617	90.7203	30.7617	90.8044	30.7617	90.887	30.7617	90.9721	30.7617	91.0538	30.7617	91.1367	30.7617	91.2144	30.7617	91.292	30.7617	91.3627	30.7617	91.4323	30.7617	91.4935	30.7617	91.5528	30.7617	91.6026	30.7617	91.6501	30.7617	91.6875	30.7617	91.722	30.7617	91.7468	30.7617	91.7677	30.7617	91.78	30.7617	91.787
32.2266	90.1265	32.2266	90.1335	32.2266	90.144	32.2266	90.1649	32.2266	90.1857	32.2266	90.2201	32.2266	90.2511	32.2266	90.2983	32.2266	90.3392	32.2266	90.3982	32.2266	90.4485	32.2266	90.5177	32.2266	90.5766	32.2266	90.654	32.2266	90.7205	32.2266	90.8036	32.2266	90.8759	32.2266	90.9618	32.2266	91.0381	32.2266	91.1233	32.2266	91.2009	32.2266	91.282	32.2266	91.3582	32.2266	91.4321	32.2266	91.5037	32.2266	91.5679	32.2266	91.632	32.2266	91.6848	32.2266	91.7386	32.2266	91.7794	32.2266	91.821	32.2266	91.8497	32.2266	91.8779	32.2266	91.8949	32.2266	91.9091	32.2266	91.9147
33.6914	90.1019	33.6914	90.1051	33.6914	90.1233	33.6914	90.1328	33.6914	90.169	33.6914	90.1846	33.6914	90.2385	33.6914	90.2597	33.6914	90.3307	33.6914	90.357	33.6914	90.4439	33.6914	90.4746	33.6914	90.5759	33.6914	90.61	33.6914	90.7234	33.6914	90.7596	33.6914	90.8821	33.6914	90.9191	33.6914	91.0471	33.6914	91.0834	33.6914	91.2123	33.6914	91.2467	33.6914	91.3716	33.6914	91.4027	33.6914	91.5189	33.6914	91.5458	33.6914	91.6488	33.6914	91.6707	33.6914	91.7569	33.6914	91.7736	33.6914	91.8401	33.6914	91.8518	33.6914	91.8969	33.6914	91.9037	33.6914	91.9264	33.6914	91.9287
35.1562	90.2851	35.1562	90.2902	35.1562	90.3037	35.1562	90.319	35.1562	90.346	35.1562	90.3712	35.1562	90.4114	35.1562	90.4461	35.1562	90.4992	35.1562	90.5427	35.1562	90.6079	35.1562	90.6594	35.1562	90.7356	35.1562	90.7937	35.1562	90.8792	35.1562	90.9425	35.1562	91.035	35.1562	91.1013	35.1562	91.198	35.1562	91.2652	35.1562	91.3627	35.1562	91.4283	35.1562	91.5229	35.1562	91.5843	35.1562	91.6724	35.1562	91.7274	35.1562	91.8055	35.1562	91.8521	35.1562	91.9175	35.1562	91.9544	35.1562	92.005	35.1562	92.0315	35.1562	92.0659	35.1562	92.0818	35.1562	92.0991	35.1562	92.1044
36.6211	90.7484	36.6211	90.7549	36.6211	90.7657	36.6211	90.7851	36.6211	90.8068	36.6211	90.8389	36.6211	90.871	36.6211	90.9155	36.6211	90.9578	36.6211	91.014	36.6211	91.0658	36.6211	91.1327	36.6211	91.193	36.6211	91.2693	36.6211	91.3366	36.6211	91.4205	36.6211	91.4927	36.6211	91.582	36.6211	91.6567	36.6211	91.7485	36.6211	91.8228	36.6211	91.914	36.6211	91.9852	36.6211	92.0723	36.6211	92.1375	36.6211	92.2172	36.6211	92.274	36.6211	92.3431	36.6211	92.3898	36.6211	92.446	36.6211	92.4814	36.6211	92.5226	36.6211	92.5464	36.6211	92.5715	36.6211	92.5834	36.6211	92.5918
38.0859	91.628	38.0859	91.6337	38.0859	91.6454	38.0859	91.6623	38.0859	91.6856	38.0859	91.7138	38.0859	91.7483	38.0859	91.7875	38.0859	91.8328	38.0859	91.8827	38.0859	91.9381	38.0859	91.9979	38.0859	92.0623	38.0859	92.1311	38.0859	92.2029	38.0859	92.2789	38.0859	92.3561	38.0859	92.4375	38.0859	92.5174	38.0859	92.6017	38.0859	92.6815	38.0859	92.7657	38.0859	92.8421	38.0859	92.9231	38.0859	92.9932	38.0859	93.0679	38.0859	93.1289	38.0859	93.1943	38.0859	93.2442	38.0859	93.2978	38.0859	93.3356	38.0859	93.3753	38.0859	93.4005	38.0859	93.4248	38.0859	93.4374	38.0859	93.4456
39.5508	92.7386	39.5508	92.7443	39.5508	92.7557	39.5508	92.7729	39.5508	92.7954	39.5508	92.824	39.5508	92.8575	39.5508	92.8975	39.5508	92.9414	39.5508	92.9924	39.5508	93.0461	39.5508	93.1075	39.5508	93.1698	39.5508	93.2407	39.5508	93.3102	39.5508	93.3889	39.5508	93.4636	39.5508	93.5481	39.5508	93.6256	39.5508	93.7132	39.5508	93.7908	39.5508	93.8784	39.5508	93.9531	39.5508	94.0375	39.5508	94.1064	39.5508	94.184	39.5508	94.2445	39.5508	94.3123	39.5508	94.3624	39.5508	94.4177	39.5508	94.4561	39.5508	94.4968	39.5508	94.5227	39.5508	94.5476	39.5508	94.5606	39.5508	94.569
41.0156	94.1473	41.0156	94.1534	41.0156	94.164	41.0156	94.1823	41.0156	94.2032	41.0156	94.2337	41.0156	94.2649	41.0156	94.3075	41.0156	94.3483	41.0156	94.403	41.0156	94.4526	41.0156	94.5189	41.0156	94.5762	41.0156	94.6532	41.0156	94.7166	41.0156	94.8029	41.0156	94.8705	41.0156	94.9642	41.0156	95.0337	41.0156	95.132	41.0156	95.201	41.0156	95.3004	41.0156	95.3663	41.0156	95.4629	41.0156	95.5236	41.0156	95.6131	41.0156	95.6666	41.0156	95.7451	41.0156	95.7898	41.0156	95.854	41.0156	95.8886	41.0156	95.936	41.0156	95.9595	41.0156	95.9885	41.0156	96.0004	41.0156	96.0102
42.4805	95.3971	42.4805	95.4075	42.4805	95.4087	42.4805	95.4398	42.4805	95.4423	42.4805	95.4938	42.4805	95.4978	42.4805	95.5691	42.4805	95.5749	42.4805	95.6652	42.4805	95.6729	42.4805	95.7809	42.4805	95.7904	42.4805	95.9141	42.4805	95.9255	42.4805	96.0621	42.4805	96.0751	42.4805	96.2211	42.4805	96.2351	42.4805	96.386	42.4805	96.4004	42.4805	96.5512	42.4805	96.5651	42.4805	96.7104	42.4805	96.7228	42.4805	96.857	42.4805	96.8673	42.4805	96.9851	42.4805	96.9928	42.4805	97.0897	42.4805	97.0948	42.4805	97.1668	42.4805	97.1698	42.4805	97.2141	42.4805	97.2155	42.4805	97.2304
43.9453	96.4472	43.9453	96.4572	43.9453	96.4584	43.9453	96.4884	43.9453	96.4909	43.9453	96.5406	43.9453	96.5447	43.9453	96.6137	43.9453	96.6196	43.9453	96.7071	43.9453	96.715	43.9453	96.8197	43.9453	96.8299	43.9453	96.9499	43.9453	96.9623	43.9453	97.0948	43.9453	97.1093	43.9453	97.2509	43.9453	97.267	43.9453	97.4134	43.9453	97.4304	43.9453	97.5766	43.9453	97.5936	43.9453	97.7343	43.9453	97.7504	43.9453	97.8801	43.9453	97.8943	43.9453	98.0079	43.9453	98.0196	43.9453	98.1127	43.9453	98.1214	43.9453	98.1906	43.9453	98.1962	43.9453	98.2387	43.9453	98.2415	43.9453	98.2558
45.4102	97.042	45.4102	97.0533	45.4102	97.0511	45.4102	97.0848	45.4102	97.0806	45.4102	97.1364	45.4102	97.1307	45.4102	97.208	45.4102	97.2014	45.4102	97.2991	45.4102	97.2923	45.4102	97.409	45.4102	97.4026	45.4102	97.536	45.4102	97.5308	45.4102	97.6777	45.4102	97.674	45.4102	97.8306	45.4102	97.8287	45.4102	97.9901	45.4102	97.9898	45.4102	98.1507	45.4102	98.1517	45.4102	98.3063	45.4102	98.308	45.4102	98.4505	45.4102	98.4522	45.4102	98.5771	45.4102	98.5784	45.4102	98.6809	45.4102	98.6816	45.4102	98.7577	45.4102	98.758	45.4102	98.8049	45.4102	98.8049	45.4102	98.8207
46.875	97.2198	46.875	97.2301	46.875	97.2294	46.875	97.2601	46.875	97.259	46.875	97.3098	46.875	97.3088	46.875	97.3792	46.875	97.3789	46.875	97.4681	46.875	97.4692	46.875	97.5757	46.875	97.579	46.875	97.7008	46.875	97.7066	46.875	97.8411	46.875	97.8497	46.875	97.9933	46.875	98.0045	46.875	98.153	46.875	98.1661	46.875	98.3146	46.875	98.3286	46.875	98.4719	46.875	98.4856	46.875	98.6184	46.875	98.6306	46.875	98.7477	46.875	98.7576	46.875	98.8541	46.875	98.8615	46.875	98.9335	46.875	98.9381	46.875	98.9826	46.875	98.9848	46.875	98.9999
48.3398	97.0724	48.3398	97.0813	48.3398	97.0827	48.3398	97.1091	48.3398	97.1121	48.3398	97.156	48.3398	97.161	48.3398	97.2221	48.3398	97.2297	48.3398	97.3074	48.3398	97.3181	48.3398	97.4113	48.3398	97.4257	48.3398	97.5327	48.3398	97.5511	48.3398	97.6698	48.3398	97.6921	48.3398	97.8192	48.3398	97.8449	48.3398	97.9768	48.3398	98.0049	48.3398	98.1372	48.3398	98.1662	48.3398	98.2942	48.3398	98.3223	48.3398	98.4411	48.3398	98.4667	48.3398	98.5716	48.3398	98.5932	48.3398	98.6799	48.3398	98.6965	48.3398	98.7613	48.3398	98.7725	48.3398	98.8126	48.3398	98.8182	48.3398	98.8317
51.2695	96.4772	51.2695	96.4856	51.2695	96.4862	51.2695	96.5115	51.2695	96.513	51.2695	96.555	51.2695	96.5579	51.2695	96.6165	51.2695	96.6214	51.2695	96.6962	51.2695	96.7037	51.2695	96.7938	51.2695	96.8047	51.2695	96.9087	51.2695	96.9233	51.2695	97.0393	51.2695	97.0577	51.2695	97.1826	51.2695	97.2045	51.2695	97.3348	51.2695	97.3594	51.2695	97.4908	51.2695	97.5166	51.2695	97.6443	51.2695	97.67	51.2695	97.789	51.2695	97.8127	51.2695	97.9182	51.2695	97.9386	51.2695	98.026	51.2695	98.042	51.2695	98.1074	51.2695	98.1183	51.2695	98.1588	51.2695	98.1643	51.2695	98.178
52.7344	96.2719	52.7344	96.2817	52.7344	96.2786	52.7344	96.3079	52.7344	96.302	52.7344	96.3506	52.7344	96.3427	52.7344	96.4102	52.7344	96.4014	52.7344	96.487	52.7344	96.4786	52.7344	96.5809	52.7344	96.5741	52.7344	96.6916	52.7344	96.6875	52.7344	96.8175	52.7344	96.8169	52.7344	96.9563	52.7344	96.9595	52.7344	97.1043	52.7344	97.111	52.7344	97.2565	52.7344	97.2659	52.7344	97.4072	52.7344	97.4179	52.7344	97.5496	52.7344	97.5603	52.7344	97.6773	52.7344	97.6868	52.7344	97.7839	52.7344	97.7914	52.7344	97.8643	52.7344	97.8693	52.7344	97.9146	52.7344	97.9171	52.7344	97.9325
54.1992	96.1239	54.1992	96.1318	54.1992	96.1311	54.1992	96.1549	54.1992	96.1539	54.1992	96.1935	54.1992	96.1929	54.1992	96.2481	54.1992	96.2487	54.1992	96.3194	54.1992	96.3221	54.1992	96.4075	54.1992	96.4133	54.1992	96.5124	54.1992	96.5219	54.1992	96.6329	54.1992	96.6465	54.1992	96.767	54.1992	96.7844	54.1992	96.911	54.1992	96.9316	54.1992	97.0604	54.1992	97.0828	54.1992	97.2092	54.1992	97.2319	54.1992	97.3508	54.1992	97.3721	54.1992	97.4784	54.1992	97.4968	54.1992	97.5858	54.1992	97.6001	54.1992	97.6673	54.1992	97.677	54.1992	97.7188	54.1992	97.7237	54.1992	97.7379
55.6641	96.0332	55.6641	96.0399	55.6641	96.041	55.6641	96.0612	55.6641	96.0638	55.6641	96.0975	55.6641	96.1022	55.6641	96.1492	55.6641	96.157	55.6641	96.2172	55.6641	96.2291	55.6641	96.302	55.6641	96.3188	55.6641	96.4036	55.6641	96.4259	55.6641	96.5211	55.6641	96.5491	55.6641	96.6525	55.6641	96.6857	55.6641	96.7946	55.6641	96.8319	55.6641	96.9428	55.6641	96.9822	55.6641	97.0911	55.6641	97.1306	55.6641	97.233	55.6641	97.27	55.6641	97.3615	55.6641	97.3939	55.6641	97.4703	55.6641	97.4961	55.6641	97.5537	55.6641	97.5716	55.6641	97.6074	55.6641	97.6166	55.6641	97.6287
58.5938	96.0725	58.5938	96.0748	58.5938	96.0829	58.5938	96.0897	58.5938	96.1061	58.5938	96.1178	58.5938	96.1432	58.5938	96.16	58.5938	96.195	58.5938	96.2172	58.5938	96.2628	58.5938	96.2906	58.5938	96.3472	58.5938	96.3807	58.5938	96.4485	58.5938	96.4872	58.5938	96.5657	58.5938	96.6088	58.5938	96.6966	58.5938	96.7429	58.5938	96.8375	58.5938	96.8854	58.5938	96.9833	58.5938	97.0309	58.5938	97.1277	58.5938	97.1729	58.5938	97.2636	58.5938	97.3044	58.5938	97.384	58.5938	97.4185	58.5938	97.4825	58.5938	97.5087	58.5938	97.5534	58.5938	97.5699	58.5938	97.5929	58.5938	97.5985
60.0586	96.1431	60.0586	96.1444	60.0586	96.1531	60.0586	96.1573	60.0586	96.1751	60.0586	96.1824	60.0586	96.2098	60.0586	96.2205	60.0586	96.2585	60.0586	96.2729	60.0586	96.3224	60.0586	96.3409	60.0586	96.4026	60.0586	96.4253	60.0586	96.4994	60.0586	96.5263	60.0586	96.6121	60.0586	96.6428	60.0586	96.7388	60.0586	96.7726	60.0586	96.8761	60.0586	96.9118	60.0586	97.0187	60.0586	97.0552	60.0586	97.1607	60.0586	97.1961	60.0586	97.2948	60.0586	97.3276	60.0586	97.4141	60.0586	97.4422	60.0586	97.5117	60.0586	97.5335	60.0586	97.5821	60.0586	97.5958	60.0586	97.6208	60.0586	97.6255
62.9883	96.3195	62.9883	96.3186	62.9883	96.3299	62.9883	96.3272	62.9883	96.3502	62.9883	96.3462	62.9883	96.3814	62.9883	96.3767	62.9883	96.4249	62.9883	96.4204	62.9883	96.4823	62.9883	96.4789	62.9883	96.5549	62.9883	96.5538	62.9883	96.6436	62.9883	96.6455	62.9883	96.7483	62.9883	96.7539	62.9883	96.8676	62.9883	96.8769	62.9883	96.9982	62.9883	97.0112	62.9883	97.1357	62.9883	97.1516	62.9883	97.2738	62.9883	97.2915	62.9883	97.4055	62.9883	97.4235	62.9883	97.5235	62.9883	97.54	62.9883	97.6204	62.9883	97.6338	62.9883	97.6901	62.9883	97.6989	62.9883	97.7279	62.9883	97.7309
64.4531	96.4075	64.4531	96.4057	64.4531	96.4176	64.4531	96.4125	64.4531	96.4365	64.4531	96.4285	64.4531	96.4653	64.4531	96.4552	64.4531	96.5056	64.4531	96.4943	64.4531	96.5589	64.4531	96.5476	64.4531	96.627	64.4531	96.6169	64.4531	96.7108	64.4531	96.7031	64.4531	96.8105	64.4531	96.8062	64.4531	96.925	64.4531	96.9246	64.4531	97.0515	64.4531	97.0551	64.4531	97.1855	64.4531	97.1927	64.4531	97.321	64.4531	97.3309	64.4531	97.451	64.4531	97.4625	64.4531	97.568	64.4531	97.5793	64.4531	97.6644	64.4531	97.674	64.4531	97.7337	64.4531	97.7402	64.4531	97.771	64.4531	97.7733
67.3828	96.549	67.3828	96.5437	67.3828	96.5609	67.3828	96.5452	67.3828	96.5797	67.3828	96.5544	67.3828	96.6064	67.3828	96.573	67.3828	96.6427	67.3828	96.6029	67.3828	96.6904	67.3828	96.6464	67.3828	96.7513	67.3828	96.7057	67.3828	96.8269	67.3828	96.7821	67.3828	96.9178	67.3828	96.8762	67.3828	97.0234	67.3828	96.9871	67.3828	97.1417	67.3828	97.1119	67.3828	97.2685	67.3828	97.2459	67.3828	97.3984	67.3828	97.3829	67.3828	97.5243	67.3828	97.515	67.3828	97.6384	67.3828	97.634	67.3828	97.733	67.3828	97.7316	67.3828	97.8008	67.3828	97.8008	67.3828	97.8364	67.3828	97.8366
