"SPL Horizontal"																																																																							
"On-Axis"		"10°"		"-10°"		"20°"		"-20°"		"30°"		"-30°"		"40°"		"-40°"		"50°"		"-50°"		"60°"		"-60°"		"70°"		"-70°"		"80°"		"-80°"		"90°"		"-90°"		"100°"		"-100°"		"110°"		"-110°"		"120°"		"-120°"		"130°"		"-130°"		"140°"		"-140°"		"150°"		"-150°"		"160°"		"-160°"		"170°"		"-170°"		"180°"	
"Frequency [Hz]"	"Sound Pessure Level [dB]  / [2.83V 1m] "	"Frequency [Hz]"	"Sound Pessure Level [dB]  / [2.83V 1m] "	"Frequency [Hz]"	"Sound Pessure Level [dB]  / [2.83V 1m] "	"Frequency [Hz]"	"Sound Pessure Level [dB]  / [2.83V 1m] "	"Frequency [Hz]"	"Sound Pessure Level [dB]  / [2.83V 1m] "	"Frequency [Hz]"	"Sound Pessure Level [dB]  / [2.83V 1m] "	"Frequency [Hz]"	"Sound Pessure Level [dB]  / [2.83V 1m] "	"Frequency [Hz]"	"Sound Pessure Level [dB]  / [2.83V 1m] "	"Frequency [Hz]"	"Sound Pessure Level [dB]  / [2.83V 1m] "	"Frequency [Hz]"	"Sound Pessure Level [dB]  / [2.83V 1m] "	"Frequency [Hz]"	"Sound Pessure Level [dB]  / [2.83V 1m] "	"Frequency [Hz]"	"Sound Pessure Level [dB]  / [2.83V 1m] "	"Frequency [Hz]"	"Sound Pessure Level [dB]  / [2.83V 1m] "	"Frequency [Hz]"	"Sound Pessure Level [dB]  / [2.83V 1m] "	"Frequency [Hz]"	"Sound Pessure Level [dB]  / [2.83V 1m] "	"Frequency [Hz]"	"Sound Pessure Level [dB]  / [2.83V 1m] "	"Frequency [Hz]"	"Sound Pessure Level [dB]  / [2.83V 1m] "	"Frequency [Hz]"	"Sound Pessure Level [dB]  / [2.83V 1m] "	"Frequency [Hz]"	"Sound Pessure Level [dB]  / [2.83V 1m] "	"Frequency [Hz]"	"Sound Pessure Level [dB]  / [2.83V 1m] "	"Frequency [Hz]"	"Sound Pessure Level [dB]  / [2.83V 1m] "	"Frequency [Hz]"	"Sound Pessure Level [dB]  / [2.83V 1m] "	"Frequency [Hz]"	"Sound Pessure Level [dB]  / [2.83V 1m] "	"Frequency [Hz]"	"Sound Pessure Level [dB]  / [2.83V 1m] "	"Frequency [Hz]"	"Sound Pessure Level [dB]  / [2.83V 1m] "	"Frequency [Hz]"	"Sound Pessure Level [dB]  / [2.83V 1m] "	"Frequency [Hz]"	"Sound Pessure Level [dB]  / [2.83V 1m] "	"Frequency [Hz]"	"Sound Pessure Level [dB]  / [2.83V 1m] "	"Frequency [Hz]"	"Sound Pessure Level [dB]  / [2.83V 1m] "	"Frequency [Hz]"	"Sound Pessure Level [dB]  / [2.83V 1m] "	"Frequency [Hz]"	"Sound Pessure Level [dB]  / [2.83V 1m] "	"Frequency [Hz]"	"Sound Pessure Level [dB]  / [2.83V 1m] "	"Frequency [Hz]"	"Sound Pessure Level [dB]  / [2.83V 1m] "	"Frequency [Hz]"	"Sound Pessure Level [dB]  / [2.83V 1m] "	"Frequency [Hz]"	"Sound Pessure Level [dB]  / [2.83V 1m] "	"Frequency [Hz]"	"Sound Pessure Level [dB]  / [2.83V 1m] "
20.5078	49.0364	20.5078	48.867	20.5078	49.1247	20.5078	48.6115	20.5078	49.1364	20.5078	48.2638	20.5078	49.0748	20.5078	47.8176	20.5078	48.9423	20.5078	47.2676	20.5078	48.7404	20.5078	46.611	20.5078	48.4702	20.5078	45.8522	20.5078	48.1326	20.5078	45.0097	20.5078	47.7298	20.5078	44.1274	20.5078	47.2665	20.5078	43.2875	20.5078	46.753	20.5078	42.6102	20.5078	46.2073	20.5078	42.2168	20.5078	45.6581	20.5078	42.1555	20.5078	45.1423	20.5078	42.3628	20.5078	44.697	20.5078	42.7098	20.5078	44.3447	20.5078	43.0783	20.5078	44.0796	20.5078	43.3993	20.5078	43.8666	20.5078	43.655
21.2402	46.7861	21.2402	46.6022	21.2402	46.8251	21.2402	46.2657	21.2402	46.7215	21.2402	45.7636	21.2402	46.4726	21.2402	45.0768	21.2402	46.0702	21.2402	44.1796	21.2402	45.5001	21.2402	43.0413	21.2402	44.741	21.2402	41.6355	21.2402	43.7643	21.2402	39.9754	21.2402	42.5354	21.2402	38.2323	21.2402	41.0257	21.2402	36.9681	21.2402	39.2618	21.2402	36.963	21.2402	37.4846	21.2402	38.1121	21.2402	36.4166	21.2402	39.5857	21.2402	36.8073	21.2402	40.8723	21.2402	38.2172	21.2402	41.8158	21.2402	39.7603	21.2402	42.3904	21.2402	41.0292	21.2402	42.5996	21.2402	41.9263	21.2402	42.4465
21.9727	45.1677	21.9727	44.8754	21.9727	45.2583	21.9727	44.3641	21.9727	45.1524	21.9727	43.601	21.9727	44.8446	21.9727	42.531	21.9727	44.3169	21.9727	41.062	21.9727	43.537	21.9727	39.0366	21.9727	42.4511	21.9727	36.1877	21.9727	40.9756	21.9727	32.2848	21.9727	38.9881	21.9727	29.9766	21.9727	36.3777	21.9727	33.5625	21.9727	33.5877	21.9727	37.4023	21.9727	33.2699	21.9727	40.1623	21.9727	36.0513	21.9727	42.1347	21.9727	38.9703	21.9727	43.5418	21.9727	41.2313	21.9727	44.5068	21.9727	42.8943	21.9727	45.0966	21.9727	44.0738	21.9727	45.345	21.9727	44.8482	21.9727	45.2641
22.7051	47.597	22.7051	47.3654	22.7051	47.6725	22.7051	46.968	22.7051	47.5961	22.7051	46.3881	22.7051	47.3665	22.7051	45.6019	22.7051	46.9772	22.7051	44.5773	22.7051	46.4168	22.7051	43.2782	22.7051	45.6693	22.7051	41.6859	22.7051	44.7183	22.7051	39.8847	22.7051	43.5576	22.7051	38.3163	22.7051	42.2262	22.7051	37.9394	22.7051	40.8942	22.7051	39.0873	22.7051	39.9801	22.7051	40.8494	22.7051	39.993	22.7051	42.4969	22.7051	40.9181	22.7051	43.807	22.7051	42.2222	22.7051	44.7511	22.7051	43.4682	22.7051	45.3447	22.7051	44.4678	22.7051	45.6052	22.7051	45.1637	22.7051	45.5435
23.4375	47.066	23.4375	46.8682	23.4375	47.0967	23.4375	46.4975	23.4375	46.9632	23.4375	45.9454	23.4375	46.6653	23.4375	45.2048	23.4375	46.2018	23.4375	44.2807	23.4375	45.5756	23.4375	43.2188	23.4375	44.8043	23.4375	42.1674	23.4375	43.9435	23.4375	41.4537	23.4375	43.1276	23.4375	41.4833	23.4375	42.5989	23.4375	42.3295	23.4375	42.6244	23.4375	43.6287	23.4375	43.2643	23.4375	44.9912	23.4375	44.2998	23.4375	46.2088	23.4375	45.445	23.4375	47.2033	23.4375	46.509	23.4375	47.9529	23.4375	47.3983	23.4375	48.456	23.4375	48.0742	23.4375	48.7161	23.4375	48.5223	23.4375	48.7372
24.1699	49.0158	24.1699	48.7984	24.1699	49.0859	24.1699	48.4255	24.1699	49.0113	24.1699	47.8833	24.1699	48.79	24.1699	47.1507	24.1699	48.4146	24.1699	46.1988	24.1699	47.8722	24.1699	44.9897	24.1699	47.1434	24.1699	43.4821	24.1699	46.2019	24.1699	41.6615	24.1699	45.016	24.1699	39.6655	24.1699	43.5587	24.1699	38.1186	24.1699	41.8485	24.1699	38.0821	24.1699	40.0828	24.1699	39.4594	24.1699	38.8842	24.1699	41.1561	24.1699	39.0247	24.1699	42.59	24.1699	40.2645	24.1699	43.6264	24.1699	41.7436	24.1699	44.261	24.1699	42.992	24.1699	44.5098	24.1699	43.8778	24.1699	44.3823
25.6348	45.4826	25.6348	45.2228	25.6348	45.4877	25.6348	44.6958	25.6348	45.2375	25.6348	43.8776	25.6348	44.7179	25.6348	42.7413	25.6348	43.9017	25.6348	41.2965	25.6348	42.7543	25.6348	39.7407	25.6348	41.2673	25.6348	38.8064	25.6348	39.602	25.6348	39.4878	25.6348	38.4866	25.6348	41.4457	25.6348	39.0839	25.6348	43.6333	25.6348	41.1192	25.6348	45.5764	25.6348	43.4074	25.6348	47.1834	25.6348	45.424	25.6348	48.4678	25.6348	47.0803	25.6348	49.4591	25.6348	48.3981	25.6348	50.182	25.6348	49.4128	25.6348	50.6539	25.6348	50.1527	25.6348	50.8849	25.6348	50.6377	25.6348	50.8798
26.3672	48.7399	26.3672	48.4889	26.3672	48.7944	26.3672	48.0281	26.3672	48.6563	26.3672	47.3324	26.3672	48.3204	26.3672	46.3619	26.3672	47.7724	26.3672	45.0586	26.3672	46.9889	26.3672	43.3508	26.3672	45.938	26.3672	41.2114	26.3672	44.5897	26.3672	38.9967	26.3672	42.9607	26.3672	38.2532	26.3672	41.2777	26.3672	39.9934	26.3672	40.2996	26.3672	42.5071	26.3672	40.9086	26.3672	44.7019	26.3672	42.6595	26.3672	46.4181	26.3672	44.5723	26.3672	47.7018	26.3672	46.2196	26.3672	48.6108	26.3672	47.515	26.3672	49.1864	26.3672	48.4666	26.3672	49.4531	26.3672	49.0968	26.3672	49.4229
27.0996	47.6365	27.0996	47.3852	27.0996	47.6781	27.0996	46.9162	27.0996	47.5137	27.0996	46.2202	27.0996	47.1433	27.0996	45.2994	27.0996	46.5669	27.0996	44.2031	27.0996	45.7965	27.0996	43.1194	27.0996	44.8844	27.0996	42.4945	27.0996	43.9849	27.0996	42.8489	27.0996	43.4261	27.0996	44.1385	27.0996	43.6042	27.0996	45.8158	27.0996	44.5855	27.0996	47.4585	27.0996	46.0157	27.0996	48.8952	27.0996	47.5163	27.0996	50.0806	27.0996	48.8842	27.0996	51.0121	27.0996	50.0421	27.0996	51.6981	27.0996	50.9685	27.0996	52.1473	27.0996	51.6612	27.0996	52.366	27.0996	52.1232	27.0996	52.3577
27.832	46.5912	27.832	46.3076	27.832	46.6103	27.832	45.7495	27.832	46.3637	27.832	44.9015	27.832	45.8377	27.832	43.7646	27.832	45.0078	27.832	42.4327	27.832	43.8515	27.832	41.3002	27.832	42.4043	27.832	41.197	27.832	40.9616	27.832	42.5139	27.832	40.4196	27.832	44.5364	27.832	41.5791	27.832	46.5601	27.832	43.7412	27.832	48.3298	27.832	45.955	27.832	49.8006	27.832	47.8804	27.832	50.9851	27.832	49.4693	27.832	51.9043	27.832	50.7437	27.832	52.5755	27.832	51.7334	27.832	53.0107	27.832	52.4619	27.832	53.2165	27.832	52.9458	27.832	53.1954
29.2969	49.9045	29.2969	49.7178	29.2969	49.9007	29.2969	49.3357	29.2969	49.7077	29.2969	48.7527	29.2969	49.3248	29.2969	47.9699	29.2969	48.752	29.2969	47.0171	29.2969	48.0007	29.2969	46.0039	29.2969	47.1175	29.2969	45.2047	29.2969	46.2335	29.2969	45.0488	29.2969	45.6229	29.2969	45.7649	29.2969	45.6377	29.2969	47.0822	29.2969	46.3975	29.2969	48.5682	29.2969	47.6404	29.2969	49.9572	29.2969	49.0135	29.2969	51.1427	29.2969	50.2966	29.2969	52.0934	29.2969	51.3943	29.2969	52.8059	29.2969	52.2738	29.2969	53.284	29.2969	52.9269	29.2969	53.5327	29.2969	53.3536	29.2969	53.5555
30.0293	49.1706	30.0293	48.9112	30.0293	49.2022	30.0293	48.4161	30.0293	49.0074	30.0293	47.6746	30.0293	48.5805	30.0293	46.6879	30.0293	47.9114	30.0293	45.5142	30.0293	46.9966	30.0293	44.3857	30.0293	45.8718	30.0293	43.8504	30.0293	44.7047	30.0293	44.4543	30.0293	43.9488	30.0293	45.9835	30.0293	44.2191	30.0293	47.7916	30.0293	45.5437	30.0293	49.4858	30.0293	47.3162	30.0293	50.9352	30.0293	49.0546	30.0293	52.116	30.0293	50.5719	30.0293	53.0351	30.0293	51.8242	30.0293	53.7051	30.0293	52.8126	30.0293	54.136	30.0293	53.5486	30.0293	54.3346	30.0293	54.0432	30.0293	54.3038
31.4941	51.6061	31.4941	51.4209	31.4941	51.6206	31.4941	51.0654	31.4941	51.4653	31.4941	50.546	31.4941	51.1432	31.4941	49.8856	31.4941	50.6629	31.4941	49.1474	31.4941	50.05	31.4941	48.4729	31.4941	49.3681	31.4941	48.1029	31.4941	48.7524	31.4941	48.284	31.4941	48.4229	31.4941	49.0546	31.4941	48.6005	31.4941	50.1999	31.4941	49.3239	31.4941	51.4533	31.4941	50.4065	31.4941	52.6378	31.4941	51.6047	31.4941	53.6664	31.4941	52.7473	31.4941	54.5031	31.4941	53.7451	31.4941	55.1351	31.4941	54.5586	31.4941	55.5588	31.4941	55.1721	31.4941	55.7739	31.4941	55.5801	31.4941	55.7809
32.2266	51.9685	32.2266	51.7946	32.2266	51.969	32.2266	51.4486	32.2266	51.7961	32.2266	50.9372	32.2266	51.451	32.2266	50.2837	32.2266	50.9401	32.2266	49.5515	32.2266	50.2858	32.2266	48.8823	32.2266	49.5495	32.2266	48.5168	32.2266	48.8699	32.2266	48.7015	32.2266	48.486	32.2266	49.4741	32.2266	48.6483	32.2266	50.6198	32.2266	49.4046	32.2266	51.8719	32.2266	50.5447	32.2266	53.0535	32.2266	51.7998	32.2266	54.0777	32.2266	52.989	32.2266	54.9083	32.2266	54.0232	32.2266	55.5325	32.2266	54.865	32.2266	55.9468	32.2266	55.5011	32.2266	56.1506	32.2266	55.9277	32.2266	56.1442
33.6914	52.4332	33.6914	52.2701	33.6914	52.4077	33.6914	51.9182	33.6914	52.1936	33.6914	51.3802	33.6914	51.7902	33.6914	50.6727	33.6914	51.2014	33.6914	49.8522	33.6914	50.4488	33.6914	49.0638	33.6914	49.6028	33.6914	48.5855	33.6914	48.8363	33.6914	48.7349	33.6914	48.458	33.6914	49.5775	33.6914	48.7653	33.6914	50.8454	33.6914	49.7412	33.6914	52.2162	33.6914	51.0708	33.6914	53.4934	33.6914	52.4475	33.6914	54.5906	33.6914	53.7021	33.6914	55.4776	33.6914	54.7653	33.6914	56.1464	33.6914	55.6141	33.6914	56.5972	33.6914	56.2438	33.6914	56.8317	33.6914	56.6555	33.6914	56.8511
34.4238	52.3637	34.4238	52.1939	34.4238	52.3427	34.4238	51.8354	34.4238	52.1308	34.4238	51.2982	34.4238	51.7305	34.4238	50.6151	34.4238	51.1535	34.4238	49.8754	34.4238	50.4391	34.4238	49.2727	34.4238	49.6911	34.4238	49.1054	34.4238	49.1272	34.4238	49.5979	34.4238	49.0581	34.4238	50.6662	34.4238	49.6709	34.4238	52.0105	34.4238	50.8227	34.4238	53.3704	34.4238	52.1986	34.4238	54.6053	34.4238	53.5556	34.4238	55.6562	34.4238	54.7707	34.4238	56.5031	34.4238	55.7947	34.4238	57.141	34.4238	56.6118	34.4238	57.5702	34.4238	57.2189	34.4238	57.7923	34.4238	57.6171	34.4238	57.8079
35.8887	54.2281	35.8887	54.0793	35.8887	54.2226	35.8887	53.7807	35.8887	54.0643	35.8887	53.3469	35.8887	53.7611	35.8887	52.8147	35.8887	53.3331	35.8887	52.2624	35.8887	52.8249	35.8887	51.8322	35.8887	52.3255	35.8887	51.7175	35.8887	51.9833	35.8887	52.0663	35.8887	51.9784	35.8887	52.8582	35.8887	52.4201	35.8887	53.9207	35.8887	53.2544	35.8887	55.06	35.8887	54.3089	35.8887	56.1412	35.8887	55.4095	35.8887	57.0906	35.8887	56.4389	35.8887	57.8729	35.8887	57.3328	35.8887	58.4725	35.8887	58.0596	35.8887	58.8828	35.8887	58.6048	35.8887	59.1015	35.8887	58.9617	35.8887	59.1277
37.3535	55.0661	37.3535	54.9129	37.3535	55.063	37.3535	54.6073	37.3535	54.9051	37.3535	54.1628	37.3535	54.5998	37.3535	53.6142	37.3535	54.1655	37.3535	53.0379	37.3535	53.6444	37.3535	52.5764	37.3535	53.1217	37.3535	52.4289	37.3535	52.7436	37.3535	52.7546	37.3535	52.6948	37.3535	53.5398	37.3535	53.0979	37.3535	54.6079	37.3535	53.9103	37.3535	55.7572	37.3535	54.9597	37.3535	56.8478	37.3535	56.0656	37.3535	57.8042	37.3535	57.1047	37.3535	58.5906	37.3535	58.0093	37.3535	59.1916	37.3535	58.7464	37.3535	59.6009	37.3535	59.3008	37.3535	59.8166	37.3535	59.6656	37.3535	59.838
38.8184	55.6426	38.8184	55.4948	38.8184	55.6401	38.8184	55.2043	38.8184	55.4879	38.8184	54.7924	38.8184	55.1955	38.8184	54.3074	38.8184	54.7869	38.8184	53.8437	38.8184	54.3142	38.8184	53.5546	38.8184	53.8766	38.8184	53.6173	38.8184	53.6289	38.8184	54.1268	38.8184	53.7405	38.8184	55.0146	38.8184	54.2892	38.8184	56.1053	38.8184	55.1939	38.8184	57.2309	38.8184	56.2812	38.8184	58.2809	38.8184	57.3909	38.8184	59.1954	38.8184	58.419	38.8184	59.9451	38.8184	59.3094	38.8184	60.5167	38.8184	60.0341	38.8184	60.904	38.8184	60.5804	38.8184	61.1046	38.8184	60.9423	38.8184	61.1173
39.5508	56.3229	39.5508	56.1923	39.5508	56.3148	39.5508	55.9323	39.5508	56.168	39.5508	55.5668	39.5508	55.8926	39.5508	55.1454	39.5508	55.5139	39.5508	54.7585	39.5508	55.085	39.5508	54.5427	39.5508	54.7021	39.5508	54.6462	39.5508	54.5081	39.5508	55.1433	39.5508	54.6513	39.5508	55.975	39.5508	55.1947	39.5508	56.9943	39.5508	56.0639	39.5508	58.0538	39.5508	57.1039	39.5508	59.051	39.5508	58.1688	39.5508	59.9262	39.5508	59.1601	39.5508	60.6482	39.5508	60.0223	39.5508	61.2009	39.5508	60.7266	39.5508	61.5765	39.5508	61.2587	39.5508	61.7712	39.5508	61.6119	39.5508	61.7831
41.0156	57.7593	41.0156	57.6692	41.0156	57.7326	41.0156	57.4712	41.0156	57.59	41.0156	57.1879	41.0156	57.3433	41.0156	56.8627	41.0156	57.0195	41.0156	56.5686	41.0156	56.6699	41.0156	56.4088	41.0156	56.378	41.0156	56.4933	41.0156	56.2569	41.0156	56.8855	41.0156	56.4143	41.0156	57.5593	41.0156	56.8935	41.0156	58.4156	41.0156	57.6417	41.0156	59.3369	41.0156	58.5443	41.0156	60.2286	41.0156	59.4839	41.0156	61.0278	41.0156	60.3729	41.0156	61.6972	41.0156	61.1563	41.0156	62.2157	41.0156	61.8022	41.0156	62.5716	41.0156	62.2928	41.0156	62.7588	41.0156	62.6186	41.0156	62.7746
42.4805	58.8881	42.4805	58.7968	42.4805	58.8731	42.4805	58.6082	42.4805	58.7529	42.4805	58.3445	42.4805	58.539	42.4805	58.0471	42.4805	58.2575	42.4805	57.7831	42.4805	57.9559	42.4805	57.645	42.4805	57.7089	42.4805	57.7292	42.4805	57.6147	42.4805	58.0923	42.4805	57.766	42.4805	58.7151	42.4805	58.2031	42.4805	59.5132	42.4805	58.8862	42.4805	60.3816	42.4805	59.7191	42.4805	61.2312	42.4805	60.5965	42.4805	61.9999	42.4805	61.435	42.4805	62.6491	42.4805	62.1792	42.4805	63.1559	42.4805	62.7952	42.4805	63.507	42.4805	63.2633	42.4805	63.6954	42.4805	63.5726	42.4805	63.7174
43.9453	60.0738	43.9453	59.9854	43.9453	60.06	43.9453	59.8029	43.9453	59.945	43.9453	59.5465	43.9453	59.7396	43.9453	59.2534	43.9453	59.4677	43.9453	58.9846	43.9453	59.172	43.9453	58.825	43.9453	58.9202	43.9453	58.8663	43.9453	58.8015	43.9453	59.1693	43.9453	58.9044	43.9453	59.7272	43.9453	59.2749	43.9453	60.4677	43.9453	59.8876	43.9453	61.2919	43.9453	60.6592	43.9453	62.1101	43.9453	61.4903	43.9453	62.8576	43.9453	62.2969	43.9453	63.4924	43.9453	63.0205	43.9453	63.9894	43.9453	63.6242	43.9453	64.3339	43.9453	64.0857	43.9453	64.5178	43.9453	64.3924	43.9453	64.5374
45.4102	61.0238	45.4102	60.9421	45.4102	61.0098	45.4102	60.773	45.4102	60.9019	45.4102	60.5366	45.4102	60.7116	45.4102	60.2704	45.4102	60.464	45.4102	60.0337	45.4102	60.2026	45.4102	59.9071	45.4102	59.9931	45.4102	59.9754	45.4102	59.9191	45.4102	60.292	45.4102	60.0586	45.4102	60.848	45.4102	60.448	45.4102	61.5756	45.4102	61.0592	45.4102	62.3818	45.4102	61.8144	45.4102	63.1823	45.4102	62.6219	45.4102	63.9148	45.4102	63.4042	45.4102	64.5384	45.4102	64.106	45.4102	65.0279	45.4102	64.6917	45.4102	65.3685	45.4102	65.1394	45.4102	65.552	45.4102	65.4361	45.4102	65.5746
47.6074	62.7483	47.6074	62.6772	47.6074	62.7385	47.6074	62.533	47.6074	62.6489	47.6074	62.335	47.6074	62.4905	47.6074	62.1168	47.6074	62.2858	47.6074	61.9295	47.6074	62.0731	47.6074	61.8392	47.6074	61.9078	47.6074	61.9133	47.6074	61.8578	47.6074	62.1951	47.6074	61.9862	47.6074	62.6811	47.6074	62.3251	47.6074	63.3206	47.6074	62.8572	47.6074	64.039	47.6074	63.5232	47.6074	64.7629	47.6074	64.2472	47.6074	65.4341	47.6074	64.9595	47.6074	66.0116	47.6074	65.6067	47.6074	66.4685	47.6074	66.152	47.6074	66.7881	47.6074	66.5717	47.6074	66.9609	47.6074	66.8511	47.6074	66.982
49.0723	63.7058	49.0723	63.6399	49.0723	63.6951	49.0723	63.5056	49.0723	63.6092	49.0723	63.3213	49.0723	63.4584	49.0723	63.1194	49.0723	63.2648	49.0723	62.9478	49.0723	63.0645	49.0723	62.8683	49.0723	62.9098	49.0723	62.943	49.0723	62.8644	49.0723	63.2124	49.0723	62.9872	49.0723	63.6744	49.0723	63.3092	49.0723	64.284	49.0723	63.816	49.0723	64.9721	49.0723	64.4539	49.0723	65.6691	49.0723	65.1515	49.0723	66.3182	49.0723	65.8416	49.0723	66.8787	49.0723	66.4717	49.0723	67.3231	49.0723	67.0048	49.0723	67.6343	49.0723	67.4164	49.0723	67.802	49.0723	67.6914	49.0723	67.8212
50.5371	64.6491	50.5371	64.5891	50.5371	64.6404	50.5371	64.4682	50.5371	64.5643	50.5371	64.3047	50.5371	64.4316	50.5371	64.1299	50.5371	64.2642	50.5371	63.9894	50.5371	64.0972	50.5371	63.9397	50.5371	63.9796	50.5371	64.0365	50.5371	63.9688	50.5371	64.3145	50.5371	64.1162	50.5371	64.7702	50.5371	64.4462	50.5371	65.3619	50.5371	64.9438	50.5371	66.0267	50.5371	65.5599	50.5371	66.7	50.5371	66.2298	50.5371	67.3283	50.5371	66.892	50.5371	67.8721	50.5371	67.4972	50.5371	68.3047	50.5371	68.0099	50.5371	68.6085	50.5371	68.4061	50.5371	68.7733	50.5371	68.6704	50.5371	68.7941
52.7344	66.3379	52.7344	66.2876	52.7344	66.3306	52.7344	66.1869	52.7344	66.2667	52.7344	66.0526	52.7344	66.1557	52.7344	65.912	52.7344	66.0169	52.7344	65.804	52.7344	65.8807	52.7344	65.7751	52.7344	65.7883	52.7344	65.8707	52.7344	65.7872	52.7344	66.1195	52.7344	65.9199	52.7344	66.521	52.7344	66.2087	52.7344	67.0438	52.7344	66.6449	52.7344	67.6368	52.7344	67.1906	52.7344	68.2445	52.7344	67.7922	52.7344	68.8176	52.7344	68.3952	52.7344	69.3182	52.7344	68.9529	52.7344	69.7187	52.7344	69.4301	52.7344	70.0008	52.7344	69.802	52.7344	70.1533	52.7344	70.052	52.7344	70.1706
54.1992	67.3003	54.1992	67.2553	54.1992	67.2924	54.1992	67.1646	54.1992	67.2325	54.1992	67.0437	54.1992	67.1299	54.1992	66.9184	54.1992	67.0025	54.1992	66.8244	54.1992	66.8789	54.1992	66.8041	54.1992	66.797	54.1992	66.8987	54.1992	66.8005	54.1992	67.1346	54.1992	66.9282	54.1992	67.5124	54.1992	67.2013	54.1992	68.0051	54.1992	67.6129	54.1992	68.5663	54.1992	68.1296	54.1992	69.1445	54.1992	68.7022	54.1992	69.6927	54.1992	69.2792	54.1992	70.1735	54.1992	69.8156	54.1992	70.5595	54.1992	70.2764	54.1992	70.8319	54.1992	70.6367	54.1992	70.9791	54.1992	70.8797	54.1992	70.9953
56.3965	68.9047	56.3965	68.8681	56.3965	68.896	56.3965	68.7925	56.3965	68.843	56.3965	68.6921	56.3965	68.7543	56.3965	68.5894	56.3965	68.6466	56.3965	68.5157	56.3965	68.5453	56.3965	68.5076	56.3965	68.4838	56.3965	68.6004	56.3965	68.4996	56.3965	68.8176	56.3965	68.626	56.3965	69.1613	56.3965	68.8811	56.3965	69.6101	56.3965	69.26	56.3965	70.125	56.3965	69.7348	56.3965	70.6601	56.3965	70.263	56.3965	71.172	56.3965	70.7985	56.3965	71.6244	56.3965	71.2993	56.3965	71.9901	56.3965	71.7318	56.3965	72.2497	56.3965	72.071	56.3965	72.3912	56.3965	72.2999	56.3965	72.4082
