"SPL Vertical"																																																																							
"On-Axis"		"10°"		"-10°"		"20°"		"-20°"		"30°"		"-30°"		"40°"		"-40°"		"50°"		"-50°"		"60°"		"-60°"		"70°"		"-70°"		"80°"		"-80°"		"90°"		"-90°"		"100°"		"-100°"		"110°"		"-110°"		"120°"		"-120°"		"130°"		"-130°"		"140°"		"-140°"		"150°"		"-150°"		"160°"		"-160°"		"170°"		"-170°"		"180°"	
"Frequency [Hz]"	"Sound Pessure Level [dB]  / [2.83V 1m] "	"Frequency [Hz]"	"Sound Pessure Level [dB]  / [2.83V 1m] "	"Frequency [Hz]"	"Sound Pessure Level [dB]  / [2.83V 1m] "	"Frequency [Hz]"	"Sound Pessure Level [dB]  / [2.83V 1m] "	"Frequency [Hz]"	"Sound Pessure Level [dB]  / [2.83V 1m] "	"Frequency [Hz]"	"Sound Pessure Level [dB]  / [2.83V 1m] "	"Frequency [Hz]"	"Sound Pessure Level [dB]  / [2.83V 1m] "	"Frequency [Hz]"	"Sound Pessure Level [dB]  / [2.83V 1m] "	"Frequency [Hz]"	"Sound Pessure Level [dB]  / [2.83V 1m] "	"Frequency [Hz]"	"Sound Pessure Level [dB]  / [2.83V 1m] "	"Frequency [Hz]"	"Sound Pessure Level [dB]  / [2.83V 1m] "	"Frequency [Hz]"	"Sound Pessure Level [dB]  / [2.83V 1m] "	"Frequency [Hz]"	"Sound Pessure Level [dB]  / [2.83V 1m] "	"Frequency [Hz]"	"Sound Pessure Level [dB]  / [2.83V 1m] "	"Frequency [Hz]"	"Sound Pessure Level [dB]  / [2.83V 1m] "	"Frequency [Hz]"	"Sound Pessure Level [dB]  / [2.83V 1m] "	"Frequency [Hz]"	"Sound Pessure Level [dB]  / [2.83V 1m] "	"Frequency [Hz]"	"Sound Pessure Level [dB]  / [2.83V 1m] "	"Frequency [Hz]"	"Sound Pessure Level [dB]  / [2.83V 1m] "	"Frequency [Hz]"	"Sound Pessure Level [dB]  / [2.83V 1m] "	"Frequency [Hz]"	"Sound Pessure Level [dB]  / [2.83V 1m] "	"Frequency [Hz]"	"Sound Pessure Level [dB]  / [2.83V 1m] "	"Frequency [Hz]"	"Sound Pessure Level [dB]  / [2.83V 1m] "	"Frequency [Hz]"	"Sound Pessure Level [dB]  / [2.83V 1m] "	"Frequency [Hz]"	"Sound Pessure Level [dB]  / [2.83V 1m] "	"Frequency [Hz]"	"Sound Pessure Level [dB]  / [2.83V 1m] "	"Frequency [Hz]"	"Sound Pessure Level [dB]  / [2.83V 1m] "	"Frequency [Hz]"	"Sound Pessure Level [dB]  / [2.83V 1m] "	"Frequency [Hz]"	"Sound Pessure Level [dB]  / [2.83V 1m] "	"Frequency [Hz]"	"Sound Pessure Level [dB]  / [2.83V 1m] "	"Frequency [Hz]"	"Sound Pessure Level [dB]  / [2.83V 1m] "	"Frequency [Hz]"	"Sound Pessure Level [dB]  / [2.83V 1m] "	"Frequency [Hz]"	"Sound Pessure Level [dB]  / [2.83V 1m] "	"Frequency [Hz]"	"Sound Pessure Level [dB]  / [2.83V 1m] "	"Frequency [Hz]"	"Sound Pessure Level [dB]  / [2.83V 1m] "	"Frequency [Hz]"	"Sound Pessure Level [dB]  / [2.83V 1m] "
20.5078	59.3516	20.5078	59.0854	20.5078	59.6407	20.5078	58.8515	20.5078	59.9397	20.5078	58.6547	20.5078	60.2333	20.5078	58.4946	20.5078	60.5061	20.5078	58.3666	20.5078	60.7429	20.5078	58.2629	20.5078	60.9303	20.5078	58.175	20.5078	61.0568	20.5078	58.0952	20.5078	61.1137	20.5078	58.0183	20.5078	61.095	20.5078	57.9429	20.5078	60.9979	20.5078	57.8718	20.5078	60.8235	20.5078	57.8126	20.5078	60.5768	20.5078	57.7771	20.5078	60.2676	20.5078	57.7798	20.5078	59.9103	20.5078	57.8363	20.5078	59.524	20.5078	57.9597	20.5078	59.1317	20.5078	58.1571	20.5078	58.7581	20.5078	58.4269
21.2402	60.5946	21.2402	60.3311	21.2402	60.8766	21.2402	60.0949	21.2402	61.1656	21.2402	59.8909	21.2402	61.4481	21.2402	59.7198	21.2402	61.71	21.2402	59.5786	21.2402	61.9377	21.2402	59.4621	21.2402	62.1191	21.2402	59.3639	21.2402	62.2435	21.2402	59.2787	21.2402	62.3029	21.2402	59.2032	21.2402	62.2918	21.2402	59.1375	21.2402	62.2078	21.2402	59.085	21.2402	62.0519	21.2402	59.0529	21.2402	61.829	21.2402	59.0511	21.2402	61.5479	21.2402	59.0911	21.2402	61.2215	21.2402	59.1837	21.2402	60.8664	21.2402	59.3366	21.2402	60.5019	21.2402	59.5523	21.2402	60.1487	21.2402	59.8267
21.9727	61.1668	21.9727	60.9028	21.9727	61.4492	21.9727	60.6654	21.9727	61.7385	21.9727	60.4593	21.9727	62.0215	21.9727	60.2852	21.9727	62.2844	21.9727	60.14	21.9727	62.5138	21.9727	60.0185	21.9727	62.6975	21.9727	59.915	21.9727	62.8252	21.9727	59.8244	21.9727	62.8885	21.9727	59.744	21.9727	62.8821	21.9727	59.6746	21.9727	62.8034	21.9727	59.6203	21.9727	62.6531	21.9727	59.5892	21.9727	62.4355	21.9727	59.5918	21.9727	62.159	21.9727	59.6395	21.9727	61.8357	21.9727	59.7429	21.9727	61.4813	21.9727	59.9086	21.9727	61.1144	21.9727	60.1376	21.9727	60.7553	21.9727	60.4239
22.7051	61.9528	22.7051	61.6863	22.7051	62.2347	22.7051	61.4432	22.7051	62.5212	22.7051	61.2283	22.7051	62.7997	22.7051	61.043	22.7051	63.0574	22.7051	60.8851	22.7051	63.2816	22.7051	60.7508	22.7051	63.4606	22.7051	60.6353	22.7051	63.5845	22.7051	60.535	22.7051	63.6455	22.7051	60.4481	22.7051	63.6381	22.7051	60.3759	22.7051	63.5598	22.7051	60.323	22.7051	63.4111	22.7051	60.2973	22.7051	63.1964	22.7051	60.3086	22.7051	62.9233	22.7051	60.3674	22.7051	62.6034	22.7051	60.4829	22.7051	62.2518	22.7051	60.66	22.7051	61.8864	22.7051	60.8985	22.7051	61.5265	22.7051	61.1915
23.4375	62.4967	23.4375	62.2452	23.4375	62.7629	23.4375	62.0155	23.4375	63.0337	23.4375	61.8119	23.4375	63.2973	23.4375	61.6348	23.4375	63.5413	23.4375	61.4821	23.4375	63.7534	23.4375	61.3497	23.4375	63.9221	23.4375	61.233	23.4375	64.0378	23.4375	61.1286	23.4375	64.0925	23.4375	61.035	23.4375	64.0809	23.4375	60.9538	23.4375	64.0004	23.4375	60.8901	23.4375	63.8516	23.4375	60.8521	23.4375	63.6384	23.4375	60.8503	23.4375	63.3686	23.4375	60.8957	23.4375	63.0536	23.4375	60.9979	23.4375	62.7081	23.4375	61.1626	23.4375	62.3499	23.4375	61.3897	23.4375	61.9982	23.4375	61.6725
24.1699	63.0437	24.1699	62.8002	24.1699	63.3011	24.1699	62.5777	24.1699	63.5627	24.1699	62.38	24.1699	63.817	24.1699	62.2076	24.1699	64.052	24.1699	62.0585	24.1699	64.2555	24.1699	61.9286	24.1699	64.4164	24.1699	61.8136	24.1699	64.525	24.1699	61.7101	24.1699	64.5736	24.1699	61.6167	24.1699	64.5571	24.1699	61.5347	24.1699	64.473	24.1699	61.4691	24.1699	64.322	24.1699	61.4276	24.1699	64.1086	24.1699	61.4204	24.1699	63.8405	24.1699	61.4582	24.1699	63.5295	24.1699	61.5505	24.1699	63.1904	24.1699	61.7035	24.1699	62.841	24.1699	61.9176	24.1699	62.5003	24.1699	62.1871
25.6348	64.3182	25.6348	64.0851	25.6348	64.5624	25.6348	63.8696	25.6348	64.8091	25.6348	63.6754	25.6348	65.048	25.6348	63.5033	25.6348	65.2681	25.6348	63.3521	25.6348	65.4582	25.6348	63.2187	25.6348	65.6083	25.6348	63.1003	25.6348	65.7094	25.6348	62.9943	25.6348	65.7543	25.6348	62.9005	25.6348	65.7382	25.6348	62.8209	25.6348	65.6589	25.6348	62.7605	25.6348	65.5172	25.6348	62.7267	25.6348	65.3169	25.6348	62.7285	25.6348	65.0656	25.6348	62.7751	25.6348	64.7737	25.6348	62.8743	25.6348	64.4551	25.6348	63.03	25.6348	64.1256	25.6348	63.2416	25.6348	63.8025	25.6348	63.5029
26.3672	65.0481	26.3672	64.8272	26.3672	65.2785	26.3672	64.6216	26.3672	65.5102	26.3672	64.435	26.3672	65.7337	26.3672	64.2683	26.3672	65.9385	26.3672	64.1206	26.3672	66.1144	26.3672	63.9896	26.3672	66.2516	26.3672	63.8725	26.3672	66.3418	26.3672	63.7677	26.3672	66.3782	26.3672	63.6749	26.3672	66.3563	26.3672	63.5961	26.3672	66.2743	26.3672	63.5358	26.3672	66.1331	26.3672	63.5009	26.3672	65.9369	26.3672	63.4996	26.3672	65.6932	26.3672	63.5403	26.3672	65.4126	26.3672	63.63	26.3672	65.1084	26.3672	63.7728	26.3672	64.796	26.3672	63.9683	26.3672	64.4917	26.3672	64.2112
27.0996	65.6322	27.0996	65.4133	27.0996	65.8591	27.0996	65.2083	27.0996	66.0862	27.0996	65.0208	27.0996	66.3043	27.0996	64.852	27.0996	66.5036	27.0996	64.7014	27.0996	66.6741	27.0996	64.5672	27.0996	66.8068	27.0996	64.4475	27.0996	66.8934	27.0996	64.3409	27.0996	66.9276	27.0996	64.2476	27.0996	66.9052	27.0996	64.1698	27.0996	66.8243	27.0996	64.1123	27.0996	66.6861	27.0996	64.0815	27.0996	66.4947	27.0996	64.0851	27.0996	66.2571	27.0996	64.1309	27.0996	65.9837	27.0996	64.2251	27.0996	65.6871	27.0996	64.3707	27.0996	65.3821	27.0996	64.5668	27.0996	65.0839	27.0996	64.8078
27.832	66.1398	27.832	65.9153	27.832	66.371	27.832	65.7037	27.832	66.6014	27.832	65.5086	27.832	66.822	27.832	65.3319	27.832	67.0231	27.832	65.1735	27.832	67.1951	27.832	65.032	27.832	67.3292	27.832	64.9062	27.832	67.4173	27.832	64.7952	27.832	67.4534	27.832	64.6996	27.832	67.4331	27.832	64.6222	27.832	67.3548	27.832	64.5676	27.832	67.2191	27.832	64.5424	27.832	67.03	27.832	64.5542	27.832	66.7943	27.832	64.61	27.832	66.5217	27.832	64.7154	27.832	66.2243	27.832	64.8725	27.832	65.9165	27.832	65.0795	27.832	65.6134	27.832	65.3299
29.2969	67.2762	29.2969	67.0571	29.2969	67.5007	29.2969	66.8493	29.2969	67.7233	29.2969	66.6569	29.2969	67.9355	29.2969	66.4819	29.2969	68.1284	29.2969	66.3251	29.2969	68.2931	29.2969	66.1861	29.2969	68.4213	29.2969	66.0642	29.2969	68.5057	29.2969	65.9593	29.2969	68.5405	29.2969	65.8723	29.2969	68.5221	29.2969	65.8059	29.2969	68.4489	29.2969	65.7641	29.2969	68.3219	29.2969	65.7523	29.2969	68.1449	29.2969	65.7766	29.2969	67.9245	29.2969	65.8424	29.2969	67.6696	29.2969	65.9535	29.2969	67.3917	29.2969	66.1108	29.2969	67.1037	29.2969	66.3121	29.2969	66.8191	29.2969	66.5513
30.0293	67.6651	30.0293	67.4495	30.0293	67.8855	30.0293	67.2443	30.0293	68.1034	30.0293	67.0533	30.0293	68.3108	30.0293	66.8788	30.0293	68.4989	30.0293	66.7213	30.0293	68.659	30.0293	66.5805	30.0293	68.783	30.0293	66.4561	30.0293	68.8638	30.0293	66.3481	30.0293	68.8957	30.0293	66.2576	30.0293	68.8751	30.0293	66.1875	30.0293	68.8006	30.0293	66.1421	30.0293	68.6731	30.0293	66.1272	30.0293	68.4964	30.0293	66.1487	30.0293	68.2769	30.0293	66.2121	30.0293	68.0237	30.0293	66.3211	30.0293	67.7477	30.0293	66.4767	30.0293	67.4619	30.0293	66.6763	30.0293	67.1794	30.0293	66.9136
31.4941	68.742	31.4941	68.5338	31.4941	68.9536	31.4941	68.3344	31.4941	69.1618	31.4941	68.1477	31.4941	69.3592	31.4941	67.9762	31.4941	69.5378	31.4941	67.8212	31.4941	69.6898	31.4941	67.6833	31.4941	69.8076	31.4941	67.5628	31.4941	69.885	31.4941	67.4604	31.4941	69.9169	31.4941	67.3777	31.4941	69.8999	31.4941	67.3176	31.4941	69.8329	31.4941	67.2841	31.4941	69.7169	31.4941	67.2817	31.4941	69.5553	31.4941	67.3154	31.4941	69.354	31.4941	67.389	31.4941	69.121	31.4941	67.5046	31.4941	68.8662	31.4941	67.6619	31.4941	68.6009	31.4941	67.8576	31.4941	68.3367	31.4941	68.0854
32.2266	69.1627	32.2266	68.9525	32.2266	69.3752	32.2266	68.7499	32.2266	69.5833	32.2266	68.559	32.2266	69.7798	32.2266	68.3826	32.2266	69.9568	32.2266	68.2225	32.2266	70.1068	32.2266	68.0794	32.2266	70.2227	32.2266	67.9543	32.2266	70.2983	32.2266	67.8482	32.2266	70.3288	32.2266	67.7633	32.2266	70.3109	32.2266	67.7025	32.2266	70.2437	32.2266	67.6699	32.2266	70.128	32.2266	67.6702	32.2266	69.9674	32.2266	67.7078	32.2266	69.7674	32.2266	67.7862	32.2266	69.5358	32.2266	67.907	32.2266	69.2822	32.2266	68.0692	32.2266	69.0173	32.2266	68.269	32.2266	68.7527	32.2266	68.4998
33.6914	69.9603	33.6914	69.7563	33.6914	70.1646	33.6914	69.5577	33.6914	70.3631	33.6914	69.3684	33.6914	70.5489	33.6914	69.1911	33.6914	70.7147	33.6914	69.0275	33.6914	70.8534	33.6914	68.8788	33.6914	70.9583	33.6914	68.746	33.6914	71.0235	33.6914	68.6306	33.6914	71.0445	33.6914	68.5351	33.6914	71.0184	33.6914	68.4631	33.6914	70.9441	33.6914	68.4191	33.6914	70.8229	33.6914	68.4081	33.6914	70.658	33.6914	68.4352	33.6914	70.4553	33.6914	68.5041	33.6914	70.2223	33.6914	68.6167	33.6914	69.9685	33.6914	68.772	33.6914	69.7047	33.6914	68.9661	33.6914	69.4423	33.6914	69.1926
34.4238	70.4507	34.4238	70.2477	34.4238	70.6537	34.4238	70.0496	34.4238	70.8505	34.4238	69.8604	34.4238	71.0344	34.4238	69.6831	34.4238	71.1984	34.4238	69.5196	34.4238	71.3356	34.4238	69.3713	34.4238	71.4395	34.4238	69.2397	34.4238	71.5045	34.4238	69.1265	34.4238	71.5262	34.4238	69.0342	34.4238	71.5019	34.4238	68.9665	34.4238	71.4306	34.4238	68.9277	34.4238	71.3135	34.4238	68.9224	34.4238	71.1538	34.4238	68.9552	34.4238	70.957	34.4238	69.0292	34.4238	70.7305	34.4238	69.1455	34.4238	70.4832	34.4238	69.303	34.4238	70.2254	34.4238	69.4973	34.4238	69.968	34.4238	69.7219
35.8887	71.3551	35.8887	71.1577	35.8887	71.5512	35.8887	70.964	35.8887	71.7403	35.8887	70.778	35.8887	71.916	35.8887	70.6026	35.8887	72.0716	35.8887	70.44	35.8887	72.2006	35.8887	70.2919	35.8887	72.2969	35.8887	70.16	35.8887	72.3552	35.8887	70.046	35.8887	72.3715	35.8887	69.9528	35.8887	72.3431	35.8887	69.8836	35.8887	72.2692	35.8887	69.8426	35.8887	72.1511	35.8887	69.8344	35.8887	71.9921	35.8887	69.863	35.8887	71.7976	35.8887	69.9317	35.8887	71.5749	35.8887	70.0415	35.8887	71.3329	35.8887	70.1913	35.8887	71.0816	35.8887	70.3775	35.8887	70.8317	35.8887	70.5937
37.3535	72.1038	37.3535	71.9122	37.3535	72.2937	37.3535	71.7235	37.3535	72.4762	37.3535	71.5418	37.3535	72.6453	37.3535	71.37	37.3535	72.7947	37.3535	71.2106	37.3535	72.9184	37.3535	71.0655	37.3535	73.0104	37.3535	70.9364	37.3535	73.0661	37.3535	70.8257	37.3535	73.0815	37.3535	70.7361	37.3535	73.0543	37.3535	70.6711	37.3535	72.9839	37.3535	70.6346	37.3535	72.8714	37.3535	70.6308	37.3535	72.7202	37.3535	70.6633	37.3535	72.5353	37.3535	70.7345	37.3535	72.3235	37.3535	70.8451	37.3535	72.093	37.3535	70.9934	37.3535	71.8532	37.3535	71.1754	37.3535	71.6139	37.3535	71.3849
38.8184	72.9179	38.8184	72.7364	38.8184	73.0961	38.8184	72.5561	38.8184	73.2661	38.8184	72.3809	38.8184	73.4221	38.8184	72.2138	38.8184	73.5587	38.8184	72.0573	38.8184	73.6703	38.8184	71.9139	38.8184	73.7519	38.8184	71.7857	38.8184	73.799	38.8184	71.6753	38.8184	73.8084	38.8184	71.5859	38.8184	73.7782	38.8184	71.521	38.8184	73.7081	38.8184	71.4846	38.8184	73.5995	38.8184	71.4806	38.8184	73.4553	38.8184	71.5122	38.8184	73.2804	38.8184	71.5812	38.8184	73.0811	38.8184	71.6876	38.8184	72.8649	38.8184	71.8294	38.8184	72.6401	38.8184	72.0022	38.8184	72.4155	38.8184	72.2001
39.5508	73.3645	39.5508	73.1914	39.5508	73.5331	39.5508	73.0181	39.5508	73.6924	39.5508	72.8481	39.5508	73.8372	39.5508	72.6844	39.5508	73.9624	39.5508	72.5296	39.5508	74.0627	39.5508	72.3859	39.5508	74.1333	39.5508	72.2557	39.5508	74.1705	39.5508	72.1415	39.5508	74.1711	39.5508	72.0467	39.5508	74.1336	39.5508	71.9749	39.5508	74.0578	39.5508	71.9303	39.5508	73.9453	39.5508	71.9169	39.5508	73.7994	39.5508	71.9383	39.5508	73.6248	39.5508	71.9964	39.5508	73.4278	39.5508	72.0918	39.5508	73.2157	39.5508	72.2226	39.5508	72.9969	39.5508	72.385	39.5508	72.7798	39.5508	72.5731
41.0156	74.819	41.0156	74.6379	41.0156	74.9956	41.0156	74.4569	41.0156	75.1628	41.0156	74.2802	41.0156	75.3155	41.0156	74.1113	41.0156	75.4485	41.0156	73.9534	41.0156	75.5568	41.0156	73.8096	41.0156	75.6358	41.0156	73.6826	41.0156	75.6818	41.0156	73.5755	41.0156	75.6917	41.0156	73.4912	41.0156	75.6639	41.0156	73.4333	41.0156	75.5981	41.0156	73.4052	41.0156	75.4954	41.0156	73.4098	41.0156	75.3586	41.0156	73.4495	41.0156	75.1921	41.0156	73.5253	41.0156	75.0017	41.0156	73.6366	41.0156	74.7942	41.0156	73.7808	41.0156	74.5774	41.0156	73.9536	41.0156	74.3595	41.0156	74.1489
42.4805	74.9623	42.4805	74.7846	42.4805	75.1355	42.4805	74.607	42.4805	75.2996	42.4805	74.4334	42.4805	75.4495	42.4805	74.2673	42.4805	75.5801	42.4805	74.1118	42.4805	75.6866	42.4805	73.9699	42.4805	75.7644	42.4805	73.8444	42.4805	75.8099	42.4805	73.7384	42.4805	75.8203	42.4805	73.6551	42.4805	75.7937	42.4805	73.5981	42.4805	75.73	42.4805	73.5709	42.4805	75.6303	42.4805	73.5764	42.4805	75.4974	42.4805	73.617	42.4805	75.3353	42.4805	73.6934	42.4805	75.1496	42.4805	73.8049	42.4805	74.9468	42.4805	73.9486	42.4805	74.7345	42.4805	74.1201	42.4805	74.5206	42.4805	74.3131
43.9453	75.6723	43.9453	75.4985	43.9453	75.8403	43.9453	75.3232	43.9453	75.9979	43.9453	75.1503	43.9453	76.1404	43.9453	74.9834	43.9453	76.2632	43.9453	74.8259	43.9453	76.3616	43.9453	74.6808	43.9453	76.4316	43.9453	74.5515	43.9453	76.4699	43.9453	74.4412	43.9453	76.4739	43.9453	74.3535	43.9453	76.4421	43.9453	74.292	43.9453	76.3746	43.9453	74.2603	43.9453	76.2725	43.9453	74.2617	43.9453	76.1387	43.9453	74.2981	43.9453	75.9771	43.9453	74.3704	43.9453	75.7932	43.9453	74.4776	43.9453	75.5934	43.9453	74.617	43.9453	75.3848	43.9453	74.7839	43.9453	75.1751	43.9453	74.9723
45.4102	76.3578	45.4102	76.188	45.4102	76.5206	45.4102	76.0156	45.4102	76.6722	45.4102	75.8445	45.4102	76.808	45.4102	75.6783	45.4102	76.9236	45.4102	75.5208	45.4102	77.0148	45.4102	75.3751	45.4102	77.0779	45.4102	75.2448	45.4102	77.1099	45.4102	75.1335	45.4102	77.1087	45.4102	75.0448	45.4102	77.073	45.4102	74.9823	45.4102	77.003	45.4102	74.9498	45.4102	76.9004	45.4102	74.9499	45.4102	76.7677	45.4102	74.9846	45.4102	76.6092	45.4102	75.0545	45.4102	76.4299	45.4102	75.1583	45.4102	76.236	45.4102	75.293	45.4102	76.0342	45.4102	75.4542	45.4102	75.8317	45.4102	75.636
47.6074	77.5444	47.6074	77.3859	47.6074	77.6948	47.6074	77.2234	47.6074	77.8331	47.6074	77.0608	47.6074	77.9554	47.6074	76.9018	47.6074	78.0577	47.6074	76.7502	47.6074	78.1367	47.6074	76.6097	47.6074	78.1891	47.6074	76.4841	47.6074	78.2127	47.6074	76.3771	47.6074	78.2059	47.6074	76.2925	47.6074	78.168	47.6074	76.234	47.6074	78.0996	47.6074	76.2046	47.6074	78.0023	47.6074	76.2068	47.6074	77.8789	47.6074	76.2416	47.6074	77.7331	47.6074	76.309	47.6074	77.5695	47.6074	76.4072	47.6074	77.3933	47.6074	76.5329	47.6074	77.2103	47.6074	76.6818	47.6074	77.0266	47.6074	76.8483
49.0723	78.3339	49.0723	78.1866	49.0723	78.4727	49.0723	78.0345	49.0723	78.5995	49.0723	77.8814	49.0723	78.7104	49.0723	77.7309	49.0723	78.8023	49.0723	77.5867	49.0723	78.8719	49.0723	77.4525	49.0723	78.9167	49.0723	77.332	49.0723	78.9348	49.0723	77.2291	49.0723	78.9248	49.0723	77.1475	49.0723	78.8865	49.0723	77.0908	49.0723	78.8205	49.0723	77.0618	49.0723	78.7286	49.0723	77.063	49.0723	78.6131	49.0723	77.0952	49.0723	78.4777	49.0723	77.1581	49.0723	78.3263	49.0723	77.2499	49.0723	78.1637	49.0723	77.3671	49.0723	77.9948	49.0723	77.5056	49.0723	77.8251	49.0723	77.6601
50.5371	78.9767	50.5371	78.8305	50.5371	79.1136	50.5371	78.6785	50.5371	79.2374	50.5371	78.5245	50.5371	79.3448	50.5371	78.3723	50.5371	79.4326	50.5371	78.2257	50.5371	79.498	50.5371	78.0888	50.5371	79.5387	50.5371	77.9654	50.5371	79.553	50.5371	77.8597	50.5371	79.54	50.5371	77.7756	50.5371	79.4995	50.5371	77.717	50.5371	79.4323	50.5371	77.6869	50.5371	79.3402	50.5371	77.6875	50.5371	79.2256	50.5371	77.7198	50.5371	79.0918	50.5371	77.7832	50.5371	78.9428	50.5371	77.8755	50.5371	78.7827	50.5371	77.9931	50.5371	78.6163	50.5371	78.1314	50.5371	78.4486	50.5371	78.2852
52.7344	79.8263	52.7344	79.6824	52.7344	79.9596	52.7344	79.5316	52.7344	80.0789	52.7344	79.3778	52.7344	80.1807	52.7344	79.2251	52.7344	80.2623	52.7344	79.0775	52.7344	80.3211	52.7344	78.9394	52.7344	80.3552	52.7344	78.8149	52.7344	80.3633	52.7344	78.7084	52.7344	80.3447	52.7344	78.6238	52.7344	80.3	52.7344	78.565	52.7344	80.23	52.7344	78.5348	52.7344	80.1369	52.7344	78.5352	52.7344	80.0232	52.7344	78.5668	52.7344	79.8921	52.7344	78.6287	52.7344	79.7472	52.7344	78.7184	52.7344	79.5926	52.7344	78.8324	52.7344	79.4324	52.7344	78.966	52.7344	79.2713	52.7344	79.1141
54.1992	80.5145	54.1992	80.3779	54.1992	80.6398	54.1992	80.2337	54.1992	80.7505	54.1992	80.0859	54.1992	80.8436	54.1992	79.9384	54.1992	80.9164	54.1992	79.7956	54.1992	80.9667	54.1992	79.6617	54.1992	80.993	54.1992	79.541	54.1992	80.9944	54.1992	79.4378	54.1992	80.9707	54.1992	79.3561	54.1992	80.9227	54.1992	79.2994	54.1992	80.8518	54.1992	79.2703	54.1992	80.7602	54.1992	79.2703	54.1992	80.6507	54.1992	79.2998	54.1992	80.5263	54.1992	79.3575	54.1992	80.3906	54.1992	79.4409	54.1992	80.2469	54.1992	79.5465	54.1992	80.0989	54.1992	79.6698	54.1992	79.9506	54.1992	79.8061
56.3965	81.3465	56.3965	81.2115	56.3965	81.4699	56.3965	81.0685	56.3965	81.5783	56.3965	80.9216	56.3965	81.6686	56.3965	80.7751	56.3965	81.7386	56.3965	80.6337	56.3965	81.7862	56.3965	80.5019	56.3965	81.8103	56.3965	80.3845	56.3965	81.8102	56.3965	80.2858	56.3965	81.7863	56.3965	80.21	56.3965	81.7396	56.3965	80.1602	56.3965	81.6718	56.3965	80.1387	56.3965	81.5852	56.3965	80.1466	56.3965	81.4825	56.3965	80.1831	56.3965	81.3667	56.3965	80.2465	56.3965	81.2406	56.3965	80.3335	56.3965	81.1072	56.3965	80.4399	56.3965	80.9693	56.3965	80.5612	56.3965	80.83	56.3965	80.6927
