"SPL Vertical"
"On-Axis"		"10°"		"-10°"		"20°"		"-20°"		"30°"		"-30°"		"40°"		"-40°"		"50°"		"-50°"		"60°"		"-60°"		"70°"		"-70°"		"80°"		"-80°"		"90°"		"-90°"		"100°"		"-100°"		"110°"		"-110°"		"120°"		"-120°"		"130°"		"-130°"		"140°"		"-140°"		"150°"		"-150°"		"160°"		"-160°"		"170°"		"-170°"		"180°"
"Frequency / Hz"	"Sound Pressure Level / dB (re 20 µPa/V)  [2.83  V @ 1. m]"	"Frequency / Hz"	"Sound Pressure Level / dB (re 20 µPa/V)  [2.83  V @ 1. m]"	"Frequency / Hz"	"Sound Pressure Level / dB (re 20 µPa/V)  [2.83  V @ 1. m]"	"Frequency / Hz"	"Sound Pressure Level / dB (re 20 µPa/V)  [2.83  V @ 1. m]"	"Frequency / Hz"	"Sound Pressure Level / dB (re 20 µPa/V)  [2.83  V @ 1. m]"	"Frequency / Hz"	"Sound Pressure Level / dB (re 20 µPa/V)  [2.83  V @ 1. m]"	"Frequency / Hz"	"Sound Pressure Level / dB (re 20 µPa/V)  [2.83  V @ 1. m]"	"Frequency / Hz"	"Sound Pressure Level / dB (re 20 µPa/V)  [2.83  V @ 1. m]"	"Frequency / Hz"	"Sound Pressure Level / dB (re 20 µPa/V)  [2.83  V @ 1. m]"	"Frequency / Hz"	"Sound Pressure Level / dB (re 20 µPa/V)  [2.83  V @ 1. m]"	"Frequency / Hz"	"Sound Pressure Level / dB (re 20 µPa/V)  [2.83  V @ 1. m]"	"Frequency / Hz"	"Sound Pressure Level / dB (re 20 µPa/V)  [2.83  V @ 1. m]"	"Frequency / Hz"	"Sound Pressure Level / dB (re 20 µPa/V)  [2.83  V @ 1. m]"	"Frequency / Hz"	"Sound Pressure Level / dB (re 20 µPa/V)  [2.83  V @ 1. m]"	"Frequency / Hz"	"Sound Pressure Level / dB (re 20 µPa/V)  [2.83  V @ 1. m]"	"Frequency / Hz"	"Sound Pressure Level / dB (re 20 µPa/V)  [2.83  V @ 1. m]"	"Frequency / Hz"	"Sound Pressure Level / dB (re 20 µPa/V)  [2.83  V @ 1. m]"	"Frequency / Hz"	"Sound Pressure Level / dB (re 20 µPa/V)  [2.83  V @ 1. m]"	"Frequency / Hz"	"Sound Pressure Level / dB (re 20 µPa/V)  [2.83  V @ 1. m]"	"Frequency / Hz"	"Sound Pressure Level / dB (re 20 µPa/V)  [2.83  V @ 1. m]"	"Frequency / Hz"	"Sound Pressure Level / dB (re 20 µPa/V)  [2.83  V @ 1. m]"	"Frequency / Hz"	"Sound Pressure Level / dB (re 20 µPa/V)  [2.83  V @ 1. m]"	"Frequency / Hz"	"Sound Pressure Level / dB (re 20 µPa/V)  [2.83  V @ 1. m]"	"Frequency / Hz"	"Sound Pressure Level / dB (re 20 µPa/V)  [2.83  V @ 1. m]"	"Frequency / Hz"	"Sound Pressure Level / dB (re 20 µPa/V)  [2.83  V @ 1. m]"	"Frequency / Hz"	"Sound Pressure Level / dB (re 20 µPa/V)  [2.83  V @ 1. m]"	"Frequency / Hz"	"Sound Pressure Level / dB (re 20 µPa/V)  [2.83  V @ 1. m]"	"Frequency / Hz"	"Sound Pressure Level / dB (re 20 µPa/V)  [2.83  V @ 1. m]"	"Frequency / Hz"	"Sound Pressure Level / dB (re 20 µPa/V)  [2.83  V @ 1. m]"	"Frequency / Hz"	"Sound Pressure Level / dB (re 20 µPa/V)  [2.83  V @ 1. m]"	"Frequency / Hz"	"Sound Pressure Level / dB (re 20 µPa/V)  [2.83  V @ 1. m]"	"Frequency / Hz"	"Sound Pressure Level / dB (re 20 µPa/V)  [2.83  V @ 1. m]"	"Frequency / Hz"	"Sound Pressure Level / dB (re 20 µPa/V)  [2.83  V @ 1. m]"	"Frequency / Hz"	"Sound Pressure Level / dB (re 20 µPa/V)  [2.83  V @ 1. m]"	"Frequency / Hz"	"Sound Pressure Level / dB (re 20 µPa/V)  [2.83  V @ 1. m]"	"Frequency / Hz"	"Sound Pressure Level / dB (re 20 µPa/V)  [2.83  V @ 1. m]"
20.5078	56.832	20.5078	56.2293	20.5078	57.3709	20.5078	55.655	20.5078	57.7835	20.5078	55.2399	20.5078	58.0234	20.5078	55.1334	20.5078	58.0496	20.5078	55.4373	20.5078	57.8242	20.5078	56.1394	20.5078	57.3207	20.5078	57.127	20.5078	56.5657	20.5078	58.2629	20.5078	55.7606	20.5078	59.4397	20.5078	55.4663	20.5078	60.5899	20.5078	56.3174	20.5078	61.6744	20.5078	58.1087	20.5078	62.6692	20.5078	60.1108	20.5078	63.5571	20.5078	61.8933	20.5078	64.3216	20.5078	63.3272	20.5078	64.9452	20.5078	64.4025	20.5078	65.4077	20.5078	65.1438	20.5078	65.6859	20.5078	65.5835	20.5078	65.754
21.9727	58.7916	21.9727	58.5175	21.9727	59.0883	21.9727	58.3466	21.9727	59.3408	21.9727	58.3615	21.9727	59.4983	21.9727	58.6216	21.9727	59.5249	21.9727	59.1387	21.9727	59.4034	21.9727	59.8737	21.9727	59.1534	21.9727	60.7589	21.9727	58.8707	21.9727	61.7246	21.9727	58.7803	21.9727	62.7146	21.9727	59.1957	21.9727	63.6886	21.9727	60.2608	21.9727	64.6184	21.9727	61.7668	21.9727	65.483	21.9727	63.3718	21.9727	66.2642	21.9727	64.8399	21.9727	66.9443	21.9727	66.0631	21.9727	67.5036	21.9727	67.0071	21.9727	67.9206	21.9727	67.6719	21.9727	68.1714	21.9727	68.0724	21.9727	68.2306
23.4375	61.0283	23.4375	60.7939	23.4375	61.2886	23.4375	60.6485	23.4375	61.5211	23.4375	60.6556	23.4375	61.684	23.4375	60.8621	23.4375	61.7489	23.4375	61.2826	23.4375	61.7047	23.4375	61.8952	23.4375	61.5708	23.4375	62.6522	23.4375	61.4208	23.4375	63.4988	23.4375	61.408	23.4375	64.3856	23.4375	61.7398	23.4375	65.2733	23.4375	62.5418	23.4375	66.1321	23.4375	63.7266	23.4375	66.9382	23.4375	65.0661	23.4375	67.6713	23.4375	66.3524	23.4375	68.3116	23.4375	67.4618	23.4375	68.8383	23.4375	68.3387	23.4375	69.2294	23.4375	68.9674	23.4375	69.4615	23.4375	69.3528	23.4375	69.5105
24.9023	63.0793	24.9023	62.9263	24.9023	63.2632	24.9023	62.852	24.9023	63.4352	24.9023	62.9015	24.9023	63.5601	24.9023	63.1078	24.9023	63.614	24.9023	63.4826	24.9023	63.5894	24.9023	64.0139	24.9023	63.5066	24.9023	64.6712	24.9023	63.4318	24.9023	65.4154	24.9023	63.4913	24.9023	66.2078	24.9023	63.8447	24.9023	67.0141	24.9023	64.5854	24.9023	67.8056	24.9023	65.6501	24.9023	68.5578	24.9023	66.8611	24.9023	69.2487	24.9023	68.0412	24.9023	69.8567	24.9023	69.0732	24.9023	70.36	24.9023	69.8976	24.9023	70.7355	24.9023	70.4927	24.9023	70.9595	24.9023	70.8588	24.9023	71.008
26.3672	65.4916	26.3672	65.3753	26.3672	65.6368	26.3672	65.3238	26.3672	65.7778	26.3672	65.372	26.3672	65.8883	26.3672	65.5466	26.3672	65.9515	26.3672	65.8603	26.3672	65.9654	26.3672	66.3092	26.3672	65.9517	26.3672	66.8741	26.3672	65.967	26.3672	67.5266	26.3672	66.1068	26.3672	68.2352	26.3672	66.4811	26.3672	68.9693	26.3672	67.1504	26.3672	69.7012	26.3672	68.0713	26.3672	70.4063	26.3672	69.1177	26.3672	71.0613	26.3672	70.1507	26.3672	71.6438	26.3672	71.0668	26.3672	72.1312	26.3672	71.8057	26.3672	72.5001	26.3672	72.3404	26.3672	72.7269	26.3672	72.6654	26.3672	72.7889
27.832	67.6973	27.832	67.5976	27.832	67.822	27.832	67.5514	27.832	67.9462	27.832	67.5864	27.832	68.0498	27.832	67.7256	27.832	68.1211	27.832	67.9826	27.832	68.1609	27.832	68.359	27.832	68.1893	27.832	68.8437	27.832	68.2525	27.832	69.4165	27.832	68.4238	27.832	70.0517	27.832	68.7838	27.832	70.7222	27.832	69.3775	27.832	71.4015	27.832	70.1772	27.832	72.0645	27.832	71.09	27.832	72.6873	27.832	72.0035	27.832	73.2464	27.832	72.8249	27.832	73.7184	27.832	73.494	27.832	74.0795	27.832	73.98	27.832	74.3065	27.832	74.273	27.832	74.3773
29.2969	69.4175	29.2969	69.3369	29.2969	69.5296	29.2969	69.3121	29.2969	69.6515	29.2969	69.3662	29.2969	69.7666	29.2969	69.518	29.2969	69.8661	29.2969	69.778	29.2969	69.9528	29.2969	70.1465	29.2969	70.0462	29.2969	70.6135	29.2969	70.1856	29.2969	71.1612	29.2969	70.4279	29.2969	71.7671	29.2969	70.8299	29.2969	72.4071	29.2969	71.4181	29.2969	73.0572	29.2969	72.1655	29.2969	73.6938	29.2969	72.9984	29.2969	74.2944	29.2969	73.8264	29.2969	74.8363	29.2969	74.5712	29.2969	75.2966	29.2969	75.1785	29.2969	75.6526	29.2969	75.6182	29.2969	75.8816	29.2969	75.8789	29.2969	75.9628
30.7617	71.5607	30.7617	71.5132	30.7617	71.6455	30.7617	71.5199	30.7617	71.7519	30.7617	71.5967	30.7617	71.8677	30.7617	71.7558	30.7617	71.9868	30.7617	72.0036	30.7617	72.1117	30.7617	72.34	30.7617	72.2571	30.7617	72.7579	30.7617	72.451	30.7617	73.2448	30.7617	72.7314	30.7617	73.7842	30.7617	73.1346	30.7617	74.3572	30.7617	73.6762	30.7617	74.944	30.7617	74.3365	30.7617	75.5242	30.7617	75.0624	30.7617	76.0767	30.7617	75.7848	30.7617	76.5799	30.7617	76.4387	30.7617	77.0115	30.7617	76.975	30.7617	77.3492	30.7617	77.3635	30.7617	77.5709	30.7617	77.5907	30.7617	77.6567
32.2266	73.7851	32.2266	73.7393	32.2266	73.8628	32.2266	73.7374	32.2266	73.9616	32.2266	73.7912	32.2266	74.0736	32.2266	73.9108	32.2266	74.1953	32.2266	74.103	32.2266	74.3296	32.2266	74.3702	32.2266	74.4875	32.2266	74.7101	32.2266	74.6882	32.2266	75.1153	32.2266	74.9571	32.2266	75.5745	32.2266	75.3177	32.2266	76.0728	32.2266	75.7804	32.2266	76.5931	32.2266	76.3326	32.2266	77.1162	32.2266	76.9376	32.2266	77.6219	32.2266	77.5439	32.2266	78.0884	32.2266	78.0982	32.2266	78.4936	32.2266	78.5563	32.2266	78.815	32.2266	78.8883	32.2266	79.0313	32.2266	79.0784	32.2266	79.1238
33.6914	75.6316	33.6914	75.5741	33.6914	75.7198	33.6914	75.5575	33.6914	75.8296	33.6914	75.592	33.6914	75.9539	33.6914	75.6866	33.6914	76.0895	33.6914	75.8477	33.6914	76.2375	33.6914	76.0785	33.6914	76.4054	33.6914	76.378	33.6914	76.6073	33.6914	76.7407	33.6914	76.862	33.6914	77.1573	33.6914	77.1882	33.6914	77.6151	33.6914	77.5959	33.6914	78.0984	33.6914	78.0781	33.6914	78.5893	33.6914	78.6075	33.6914	79.0681	33.6914	79.1417	33.6914	79.5139	33.6914	79.634	33.6914	79.9045	33.6914	80.0427	33.6914	80.218	33.6914	80.3379	33.6914	80.4334	33.6914	80.5027	33.6914	80.5327
35.1562	77.3678	35.1562	77.3113	35.1562	77.4548	35.1562	77.2934	35.1562	77.5651	35.1562	77.3222	35.1562	77.6932	35.1562	77.4048	35.1562	77.8361	35.1562	77.5467	35.1562	77.9944	35.1562	77.7507	35.1562	78.1732	35.1562	78.0167	35.1562	78.382	35.1562	78.3409	35.1562	78.634	35.1562	78.716	35.1562	78.9423	35.1562	79.1316	35.1562	79.314	35.1562	79.5743	35.1562	79.7437	35.1562	80.0281	35.1562	80.2104	35.1562	80.4747	35.1562	80.6801	35.1562	80.8942	35.1562	81.1131	35.1562	81.2655	35.1562	81.4724	35.1562	81.5671	35.1562	81.7297	35.1562	81.7788	35.1562	81.8684	35.1562	81.8833
36.6211	79.0044	36.6211	78.9458	36.6211	79.0919	36.6211	78.9221	36.6211	79.2026	36.6211	78.9396	36.6211	79.3322	36.6211	79.0041	36.6211	79.4784	36.6211	79.1201	36.6211	79.6408	36.6211	79.2906	36.6211	79.8226	36.6211	79.5165	36.6211	80.0298	36.6211	79.7956	36.6211	80.2711	36.6211	80.1232	36.6211	80.5553	36.6211	80.4912	36.6211	80.8873	36.6211	80.8886	36.6211	81.2629	36.6211	81.3015	36.6211	81.6663	36.6211	81.7133	36.6211	82.0703	36.6211	82.1052	36.6211	82.442	36.6211	82.4568	36.6211	82.7488	36.6211	82.7474	36.6211	82.9647	36.6211	82.9573	36.6211	83.0736	36.6211	83.0699
38.0859	80.1299	38.0859	80.0719	38.0859	80.2173	38.0859	80.0487	38.0859	80.329	38.0859	80.0657	38.0859	80.461	38.0859	80.1278	38.0859	80.6105	38.0859	80.239	38.0859	80.7766	38.0859	80.4019	38.0859	80.9609	38.0859	80.6173	38.0859	81.1677	38.0859	80.8839	38.0859	81.403	38.0859	81.1974	38.0859	81.6734	38.0859	81.5508	38.0859	81.9829	38.0859	81.9342	38.0859	82.3295	38.0859	82.334	38.0859	82.7016	38.0859	82.7343	38.0859	83.0777	38.0859	83.1161	38.0859	83.4286	38.0859	83.4589	38.0859	83.7236	38.0859	83.7413	38.0859	83.9359	38.0859	83.9435	38.0859	84.047	38.0859	84.0489
39.5508	81.0814	39.5508	81.0232	39.5508	81.1687	39.5508	80.9979	39.5508	81.2811	39.5508	81.0094	39.5508	81.4153	39.5508	81.0616	39.5508	81.5688	39.5508	81.1574	39.5508	81.74	39.5508	81.2991	39.5508	81.929	39.5508	81.4878	39.5508	82.1374	39.5508	81.723	39.5508	82.3682	39.5508	82.0017	39.5508	82.6249	39.5508	82.3189	39.5508	82.9095	39.5508	82.6663	39.5508	83.2199	39.5508	83.0327	39.5508	83.5471	39.5508	83.4034	39.5508	83.8738	39.5508	83.7613	39.5508	84.176	39.5508	84.0867	39.5508	84.4272	39.5508	84.3594	39.5508	84.6036	39.5508	84.5601	39.5508	84.6881	39.5508	84.673
41.0156	81.7653	41.0156	81.7026	41.0156	81.8561	41.0156	81.6711	41.0156	81.972	41.0156	81.6739	41.0156	82.1101	41.0156	81.7138	41.0156	82.2678	41.0156	81.7935	41.0156	82.4431	41.0156	81.9151	41.0156	82.6348	41.0156	82.0797	41.0156	82.8424	41.0156	82.2874	41.0156	83.0668	41.0156	82.5364	41.0156	83.309	41.0156	82.8228	41.0156	83.5696	41.0156	83.1397	41.0156	83.8466	41.0156	83.4773	41.0156	84.1328	41.0156	83.8228	41.0156	84.4146	41.0156	84.1599	41.0156	84.6723	41.0156	84.4703	41.0156	84.8833	41.0156	84.7347	41.0156	85.0264	41.0156	84.9346	41.0156	85.086	41.0156	85.0549
42.4805	82.1776	42.4805	82.1108	42.4805	82.2715	42.4805	82.0736	42.4805	82.3901	42.4805	82.0682	42.4805	82.5307	42.4805	82.097	42.4805	82.6908	42.4805	82.1621	42.4805	82.868	42.4805	82.2654	42.4805	83.0603	42.4805	82.4082	42.4805	83.2658	42.4805	82.5909	42.4805	83.4837	42.4805	82.8126	42.4805	83.7134	42.4805	83.0705	42.4805	83.9543	42.4805	83.3591	42.4805	84.2039	42.4805	83.6703	42.4805	84.4564	42.4805	83.9924	42.4805	84.7005	42.4805	84.3108	42.4805	84.92	42.4805	84.6083	42.4805	85.0952	42.4805	84.8663	42.4805	85.2076	42.4805	85.0671	42.4805	85.2434	42.4805	85.1959
43.9453	82.4474	43.9453	82.3783	43.9453	82.5432	43.9453	82.3374	43.9453	82.6635	43.9453	82.3267	43.9453	82.8061	43.9453	82.3476	43.9453	82.9684	43.9453	82.4017	43.9453	83.1476	43.9453	82.4906	43.9453	83.3406	43.9453	82.6154	43.9453	83.5445	43.9453	82.7767	43.9453	83.7567	43.9453	82.9741	43.9453	83.9752	43.9453	83.2058	43.9453	84.1981	43.9453	83.4675	43.9453	84.4229	43.9453	83.7526	43.9453	84.6444	43.9453	84.051	43.9453	84.8538	43.9453	84.3495	43.9453	85.0376	43.9453	84.6323	43.9453	85.1796	43.9453	84.8819	43.9453	85.2638	43.9453	85.0814	43.9453	85.2779	43.9453	85.2164
45.4102	82.7266	45.4102	82.655	45.4102	82.8232	45.4102	82.6097	45.4102	82.9435	45.4102	82.5918	45.4102	83.0854	45.4102	82.6021	45.4102	83.2463	45.4102	82.6419	45.4102	83.4232	45.4102	82.7123	45.4102	83.6121	45.4102	82.8146	45.4102	83.8093	45.4102	82.9496	45.4102	84.0108	45.4102	83.1178	45.4102	84.2134	45.4102	83.3182	45.4102	84.4143	45.4102	83.5484	45.4102	84.6107	45.4102	83.803	45.4102	84.7985	45.4102	84.0738	45.4102	84.9709	45.4102	84.3494	45.4102	85.1172	45.4102	84.6152	45.4102	85.2243	45.4102	84.8549	45.4102	85.2787	45.4102	85.0524	45.4102	85.27	45.4102	85.1938
46.875	82.8399	46.875	82.7649	46.875	82.9382	46.875	82.714	46.875	83.0588	46.875	82.6877	46.875	83.1999	46.875	82.6865	46.875	83.359	46.875	82.7113	46.875	83.5327	46.875	82.7633	46.875	83.7165	46.875	82.8439	46.875	83.9057	46.875	82.9546	46.875	84.0956	46.875	83.0963	46.875	84.282	46.875	83.2693	46.875	84.4618	46.875	83.4722	46.875	84.6321	46.875	83.7009	46.875	84.7898	46.875	83.9488	46.875	84.9296	46.875	84.2053	46.875	85.0434	46.875	84.4572	46.875	85.1203	46.875	84.6889	46.875	85.1491	46.875	84.885	46.875	85.1209	46.875	85.0319
48.3398	82.8599	48.3398	82.7796	48.3398	82.9631	48.3398	82.7227	48.3398	83.0885	48.3398	82.6893	48.3398	83.2344	48.3398	82.6798	48.3398	83.3982	48.3398	82.695	48.3398	83.5762	48.3398	82.7359	48.3398	83.7634	48.3398	82.804	48.3398	83.9545	48.3398	82.9012	48.3398	84.1437	48.3398	83.0289	48.3398	84.3261	48.3398	83.1878	48.3398	84.4976	48.3398	83.3772	48.3398	84.6551	48.3398	83.5939	48.3398	84.7956	48.3398	83.8318	48.3398	84.9148	48.3398	84.0813	48.3398	85.006	48.3398	84.3297	48.3398	85.0602	48.3398	84.5619	48.3398	85.0681	48.3398	84.7629	48.3398	85.0221	48.3398	84.9193
51.2695	82.7354	51.2695	82.643	51.2695	82.8546	51.2695	82.5782	51.2695	82.999	51.2695	82.541	51.2695	83.1661	51.2695	82.5313	51.2695	83.3522	51.2695	82.5488	51.2695	83.5523	51.2695	82.5932	51.2695	83.7603	51.2695	82.6646	51.2695	83.9695	51.2695	82.7629	51.2695	84.1727	51.2695	82.8884	51.2695	84.3631	51.2695	83.041	51.2695	84.5345	51.2695	83.2198	51.2695	84.6823	51.2695	83.4223	51.2695	84.8025	51.2695	83.6443	51.2695	84.8914	51.2695	83.8786	51.2695	84.9449	51.2695	84.1154	51.2695	84.9581	51.2695	84.3427	51.2695	84.9263	51.2695	84.5478	51.2695	84.8464	51.2695	84.7187
52.7344	82.6901	52.7344	82.614	52.7344	82.7913	52.7344	82.5625	52.7344	82.9178	52.7344	82.5343	52.7344	83.0681	52.7344	82.5282	52.7344	83.2395	52.7344	82.5431	52.7344	83.4274	52.7344	82.5783	52.7344	83.6253	52.7344	82.6336	52.7344	83.8255	52.7344	82.7093	52.7344	84.0193	52.7344	82.8062	52.7344	84.1984	52.7344	82.9252	52.7344	84.3553	52.7344	83.0668	52.7344	84.4843	52.7344	83.2306	52.7344	84.5816	52.7344	83.4143	52.7344	84.6446	52.7344	83.6133	52.7344	84.6714	52.7344	83.8202	52.7344	84.6597	52.7344	84.0247	52.7344	84.6076	52.7344	84.2156	52.7344	84.5143	52.7344	84.3818
54.1992	82.8086	54.1992	82.7241	54.1992	82.9145	54.1992	82.6603	54.1992	83.0415	54.1992	82.6159	54.1992	83.1882	54.1992	82.5896	54.1992	83.3514	54.1992	82.5804	54.1992	83.5262	54.1992	82.5878	54.1992	83.7061	54.1992	82.6116	54.1992	83.8831	54.1992	82.6529	54.1992	84.0486	54.1992	82.7129	54.1992	84.1943	54.1992	82.7937	54.1992	84.3133	54.1992	82.8968	54.1992	84.401	54.1992	83.0235	54.1992	84.4547	54.1992	83.1732	54.1992	84.474	54.1992	83.3429	54.1992	84.4592	54.1992	83.5267	54.1992	84.4107	54.1992	83.716	54.1992	84.3286	54.1992	83.9002	54.1992	84.2138	54.1992	84.0691
55.6641	82.9124	55.6641	82.8248	55.6641	83.0205	55.6641	82.757	55.6641	83.149	55.6641	82.7077	55.6641	83.2962	55.6641	82.6752	55.6641	83.459	55.6641	82.6585	55.6641	83.6321	55.6641	82.6568	55.6641	83.8086	55.6641	82.6702	55.6641	83.9806	55.6641	82.6994	55.6641	84.1392	55.6641	82.7462	55.6641	84.2763	55.6641	82.8129	55.6641	84.3851	55.6641	82.9018	55.6641	84.4609	55.6641	83.0149	55.6641	84.5014	55.6641	83.1524	55.6641	84.5063	55.6641	83.3123	55.6641	84.4765	55.6641	83.4896	55.6641	84.413	55.6641	83.6762	55.6641	84.3169	55.6641	83.8619	55.6641	84.19	55.6641	84.0362
58.5938	82.8009	58.5938	82.7026	58.5938	82.9196	58.5938	82.6236	58.5938	83.0582	58.5938	82.5623	58.5938	83.2147	58.5938	82.5168	58.5938	83.385	58.5938	82.4854	58.5938	83.5631	58.5938	82.467	58.5938	83.7411	58.5938	82.4615	58.5938	83.9101	58.5938	82.4697	58.5938	84.0607	58.5938	82.4936	58.5938	84.1841	58.5938	82.5362	58.5938	84.2733	58.5938	82.6008	58.5938	84.3236	58.5938	82.6905	58.5938	84.3333	58.5938	82.807	58.5938	84.3031	58.5938	82.9499	58.5938	84.2358	58.5938	83.1158	58.5938	84.1351	58.5938	83.298	58.5938	84.0048	58.5938	83.4875	58.5938	83.8494	58.5938	83.6744
60.0586	82.7179	60.0586	82.6147	60.0586	82.842	60.0586	82.5319	60.0586	82.9867	60.0586	82.4679	60.0586	83.1494	60.0586	82.4208	60.0586	83.3262	60.0586	82.389	60.0586	83.5109	60.0586	82.3713	60.0586	83.6956	60.0586	82.3674	60.0586	83.8714	60.0586	82.378	60.0586	84.0291	60.0586	82.405	60.0586	84.1595	60.0586	82.4511	60.0586	84.2554	60.0586	82.5193	60.0586	84.3112	60.0586	82.6128	60.0586	84.3246	60.0586	82.7334	60.0586	84.2955	60.0586	82.8809	60.0586	84.2264	60.0586	83.0522	60.0586	84.1207	60.0586	83.241	60.0586	83.9831	60.0586	83.4384	60.0586	83.8187	60.0586	83.6343
62.9883	82.4459	62.9883	82.3419	62.9883	82.5741	62.9883	82.2609	62.9883	82.7258	62.9883	82.2012	62.9883	82.8989	62.9883	82.1603	62.9883	83.0889	62.9883	82.1359	62.9883	83.2893	62.9883	82.1261	62.9883	83.4917	62.9883	82.1297	62.9883	83.6865	62.9883	82.1468	62.9883	83.8633	62.9883	82.1783	62.9883	84.0116	62.9883	82.2265	62.9883	84.1223	62.9883	82.2942	62.9883	84.1881	62.9883	82.3849	62.9883	84.2047	62.9883	82.5014	62.9883	84.1712	62.9883	82.6449	62.9883	84.0901	62.9883	82.8142	62.9883	83.9665	62.9883	83.0051	62.9883	83.8076	62.9883	83.21	62.9883	83.6219	62.9883	83.4192
64.4531	82.3817	64.4531	82.2764	64.4531	82.5114	64.4531	82.1945	64.4531	82.6648	64.4531	82.1341	64.4531	82.8395	64.4531	82.0925	64.4531	83.031	64.4531	82.0672	64.4531	83.2327	64.4531	82.0561	64.4531	83.4361	64.4531	82.0576	64.4531	83.6314	64.4531	82.0715	64.4531	83.8079	64.4531	82.0983	64.4531	83.955	64.4531	82.1402	64.4531	84.063	64.4531	82.2003	64.4531	84.1242	64.4531	82.282	64.4531	84.134	64.4531	82.3889	64.4531	84.0913	64.4531	82.5233	64.4531	83.9991	64.4531	82.6852	64.4531	83.8634	64.4531	82.8712	64.4531	83.6926	64.4531	83.075	64.4531	83.4969	64.4531	83.2872
67.3828	82.2541	67.3828	82.1449	67.3828	82.3864	67.3828	82.0579	67.3828	82.5412	67.3828	81.991	67.3828	82.7159	67.3828	81.9414	67.3828	82.9057	67.3828	81.9062	67.3828	83.1038	67.3828	81.883	67.3828	83.3018	67.3828	81.8699	67.3828	83.4896	67.3828	81.8663	67.3828	83.6565	67.3828	81.8728	67.3828	83.7917	67.3828	81.8918	67.3828	83.8851	67.3828	81.9267	67.3828	83.9285	67.3828	81.9822	67.3828	83.9166	67.3828	82.0633	67.3828	83.8484	67.3828	82.1743	67.3828	83.7273	67.3828	82.3177	67.3828	83.5613	67.3828	82.4926	67.3828	83.3615	67.3828	82.6943	67.3828	83.1412	67.3828	82.9144
