"SPL Horizontal"																																																																							
"On-Axis"		"10°"		"-10°"		"20°"		"-20°"		"30°"		"-30°"		"40°"		"-40°"		"50°"		"-50°"		"60°"		"-60°"		"70°"		"-70°"		"80°"		"-80°"		"90°"		"-90°"		"100°"		"-100°"		"110°"		"-110°"		"120°"		"-120°"		"130°"		"-130°"		"140°"		"-140°"		"150°"		"-150°"		"160°"		"-160°"		"170°"		"-170°"		"180°"	
"Frequency [Hz]"	"Sound Pessure Level [dB]  / [2.83V 1m] "	"Frequency [Hz]"	"Sound Pessure Level [dB]  / [2.83V 1m] "	"Frequency [Hz]"	"Sound Pessure Level [dB]  / [2.83V 1m] "	"Frequency [Hz]"	"Sound Pessure Level [dB]  / [2.83V 1m] "	"Frequency [Hz]"	"Sound Pessure Level [dB]  / [2.83V 1m] "	"Frequency [Hz]"	"Sound Pessure Level [dB]  / [2.83V 1m] "	"Frequency [Hz]"	"Sound Pessure Level [dB]  / [2.83V 1m] "	"Frequency [Hz]"	"Sound Pessure Level [dB]  / [2.83V 1m] "	"Frequency [Hz]"	"Sound Pessure Level [dB]  / [2.83V 1m] "	"Frequency [Hz]"	"Sound Pessure Level [dB]  / [2.83V 1m] "	"Frequency [Hz]"	"Sound Pessure Level [dB]  / [2.83V 1m] "	"Frequency [Hz]"	"Sound Pessure Level [dB]  / [2.83V 1m] "	"Frequency [Hz]"	"Sound Pessure Level [dB]  / [2.83V 1m] "	"Frequency [Hz]"	"Sound Pessure Level [dB]  / [2.83V 1m] "	"Frequency [Hz]"	"Sound Pessure Level [dB]  / [2.83V 1m] "	"Frequency [Hz]"	"Sound Pessure Level [dB]  / [2.83V 1m] "	"Frequency [Hz]"	"Sound Pessure Level [dB]  / [2.83V 1m] "	"Frequency [Hz]"	"Sound Pessure Level [dB]  / [2.83V 1m] "	"Frequency [Hz]"	"Sound Pessure Level [dB]  / [2.83V 1m] "	"Frequency [Hz]"	"Sound Pessure Level [dB]  / [2.83V 1m] "	"Frequency [Hz]"	"Sound Pessure Level [dB]  / [2.83V 1m] "	"Frequency [Hz]"	"Sound Pessure Level [dB]  / [2.83V 1m] "	"Frequency [Hz]"	"Sound Pessure Level [dB]  / [2.83V 1m] "	"Frequency [Hz]"	"Sound Pessure Level [dB]  / [2.83V 1m] "	"Frequency [Hz]"	"Sound Pessure Level [dB]  / [2.83V 1m] "	"Frequency [Hz]"	"Sound Pessure Level [dB]  / [2.83V 1m] "	"Frequency [Hz]"	"Sound Pessure Level [dB]  / [2.83V 1m] "	"Frequency [Hz]"	"Sound Pessure Level [dB]  / [2.83V 1m] "	"Frequency [Hz]"	"Sound Pessure Level [dB]  / [2.83V 1m] "	"Frequency [Hz]"	"Sound Pessure Level [dB]  / [2.83V 1m] "	"Frequency [Hz]"	"Sound Pessure Level [dB]  / [2.83V 1m] "	"Frequency [Hz]"	"Sound Pessure Level [dB]  / [2.83V 1m] "	"Frequency [Hz]"	"Sound Pessure Level [dB]  / [2.83V 1m] "	"Frequency [Hz]"	"Sound Pessure Level [dB]  / [2.83V 1m] "	"Frequency [Hz]"	"Sound Pessure Level [dB]  / [2.83V 1m] "	"Frequency [Hz]"	"Sound Pessure Level [dB]  / [2.83V 1m] "
20.5078	42.0136	20.5078	41.8324	20.5078	41.9481	20.5078	41.4004	20.5078	41.636	20.5078	40.7147	20.5078	41.0755	20.5078	39.7969	20.5078	40.279	20.5078	38.7618	20.5078	39.3186	20.5078	37.961	20.5078	38.434	20.5078	38.0117	20.5078	38.1374	20.5078	39.1967	20.5078	38.8963	20.5078	41.0353	20.5078	40.5061	20.5078	42.9603	20.5078	42.3897	20.5078	44.7078	20.5078	44.1816	20.5078	46.203	20.5078	45.7495	20.5078	47.4382	20.5078	47.0641	20.5078	48.4234	20.5078	48.128	20.5078	49.1701	20.5078	48.9512	20.5078	49.6875	20.5078	49.5428	20.5078	49.9814	20.5078	49.9094	20.5078	50.0551
21.2402	42.6772	21.2402	42.6045	21.2402	42.5849	21.2402	42.3793	21.2402	42.3357	21.2402	42.0412	21.2402	41.9646	21.2402	41.6784	21.2402	41.5545	21.2402	41.451	21.2402	41.2645	21.2402	41.5743	21.2402	41.3222	21.2402	42.2013	21.2402	41.9056	21.2402	43.2886	21.2402	42.9859	21.2402	44.6372	21.2402	44.3556	21.2402	46.0444	21.2402	45.7958	21.2402	47.379	21.2402	47.1657	21.2402	48.5734	21.2402	48.3943	21.2402	49.5973	21.2402	49.4505	21.2402	50.4379	21.2402	50.3218	21.2402	51.0902	21.2402	51.0039	21.2402	51.5527	21.2402	51.4954	21.2402	51.8246	21.2402	51.796	21.2402	51.9057
21.9727	44.6612	21.9727	44.5403	21.9727	44.5864	21.9727	44.2279	21.9727	44.3153	21.9727	43.7364	21.9727	43.8525	21.9727	43.1045	21.9727	43.2202	21.9727	42.4332	21.9727	42.489	21.9727	41.9364	21.9727	41.8339	21.9727	41.9265	21.9727	41.5712	21.9727	42.6032	21.9727	42.0102	21.9727	43.8344	21.9727	43.1355	21.9727	45.303	21.9727	44.6224	21.9727	46.7591	21.9727	46.1571	21.9727	48.0749	21.9727	47.5686	21.9727	49.1985	21.9727	48.7878	21.9727	50.113	21.9727	49.7927	21.9727	50.8145	21.9727	50.5792	21.9727	51.3035	21.9727	51.1489	21.9727	51.5811	21.9727	51.5045	21.9727	51.6482
22.7051	44.6986	22.7051	44.5236	22.7051	44.6387	22.7051	44.1091	22.7051	44.344	22.7051	43.4507	22.7051	43.813	22.7051	42.5626	22.7051	43.0544	22.7051	41.532	22.7051	42.124	22.7051	40.6419	22.7051	41.2116	22.7051	40.4518	22.7051	40.7501	22.7051	41.3636	22.7051	41.2336	22.7051	43.0476	22.7051	42.624	22.7051	44.9207	22.7051	44.4031	22.7051	46.6613	22.7051	46.1601	22.7051	48.1638	22.7051	47.722	22.7051	49.4091	22.7051	49.0403	22.7051	50.4032	22.7051	50.1102	22.7051	51.1567	22.7051	50.9388	22.7051	51.6787	22.7051	51.5345	22.7051	51.9754	22.7051	51.9036	22.7051	52.0501
23.4375	45.4438	23.4375	45.3819	23.4375	45.3749	23.4375	45.2029	23.4375	45.1835	23.4375	44.9476	23.4375	44.9039	23.4375	44.6972	23.4375	44.6104	23.4375	44.5839	23.4375	44.4312	23.4375	44.7665	23.4375	44.5341	23.4375	45.3499	23.4375	45.0486	23.4375	46.3043	23.4375	45.9677	23.4375	47.4885	23.4375	47.1527	23.4375	48.7449	23.4375	48.4338	23.4375	49.958	23.4375	49.683	23.4375	51.0598	23.4375	50.825	23.4375	52.0145	23.4375	51.8205	23.4375	52.8041	23.4375	52.6503	23.4375	53.4194	23.4375	53.305	23.4375	53.8559	23.4375	53.78	23.4375	54.1111	23.4375	54.0733	23.4375	54.1837
24.1699	46.3172	24.1699	46.2318	24.1699	46.2382	24.1699	45.991	24.1699	45.998	24.1699	45.6227	24.1699	45.6164	24.1699	45.19	24.1699	45.1449	24.1699	44.8166	24.1699	44.6941	24.1699	44.6961	24.1699	44.4561	24.1699	45.0234	24.1699	44.6577	24.1699	45.849	24.1699	45.4024	24.1699	47.0299	24.1699	46.5692	24.1699	48.3526	24.1699	47.9254	24.1699	49.6529	24.1699	49.2804	24.1699	50.8375	24.1699	50.525	24.1699	51.8612	24.1699	51.6075	24.1699	52.7043	24.1699	52.5062	24.1699	53.3583	24.1699	53.2127	24.1699	53.8201	24.1699	53.7244	24.1699	54.0881	24.1699	54.0407	24.1699	54.1618
25.6348	47.8954	25.6348	47.8028	25.6348	47.8356	25.6348	47.5645	25.6348	47.629	25.6348	47.2044	25.6348	47.2968	25.6348	46.7781	25.6348	46.8891	25.6348	46.3953	25.6348	46.5052	25.6348	46.2308	25.6348	46.3079	25.6348	46.4732	25.6348	46.4852	25.6348	47.1956	25.6348	47.1332	25.6348	48.2882	25.6348	48.1701	25.6348	49.5522	25.6348	49.4072	25.6348	50.8192	25.6348	50.6703	25.6348	51.9875	25.6348	51.8488	25.6348	53.0052	25.6348	52.8843	25.6348	53.8481	25.6348	53.749	25.6348	54.5058	25.6348	54.4304	25.6348	54.9735	25.6348	54.9229	25.6348	55.2496	25.6348	55.2242	25.6348	55.3332
26.3672	48.6264	26.3672	48.5418	26.3672	48.5707	26.3672	48.3251	26.3672	48.3802	26.3672	48.003	26.3672	48.0774	26.3672	47.6334	26.3672	47.7127	26.3672	47.3231	26.3672	47.3824	26.3672	47.2309	26.3672	47.2368	26.3672	47.5152	26.3672	47.4415	26.3672	48.229	26.3672	48.0771	26.3672	49.273	26.3672	49.0708	26.3672	50.4742	26.3672	50.255	26.3672	51.6823	26.3672	51.4704	26.3672	52.802	26.3672	52.6114	26.3672	53.7817	26.3672	53.6194	26.3672	54.596	26.3672	54.4649	26.3672	55.2323	26.3672	55.1336	26.3672	55.6848	26.3672	55.619	26.3672	55.9506	26.3672	55.9177	26.3672	56.0283
27.0996	49.4341	27.0996	49.3595	27.0996	49.3916	27.0996	49.1777	27.0996	49.2387	27.0996	48.9193	27.0996	49.0009	27.0996	48.645	27.0996	48.7315	27.0996	48.4567	27.0996	48.5226	27.0996	48.488	27.0996	48.502	27.0996	48.8545	27.0996	48.7936	27.0996	49.579	27.0996	49.4443	27.0996	50.5723	27.0996	50.3869	27.0996	51.6942	27.0996	51.4875	27.0996	52.8213	27.0996	52.6167	27.0996	53.8708	27.0996	53.6831	27.0996	54.7943	27.0996	54.632	27.0996	55.5655	27.0996	55.4331	27.0996	56.1705	27.0996	56.0701	27.0996	56.6016	27.0996	56.5343	27.0996	56.8548	27.0996	56.8211	27.0996	56.9282
27.832	50.5019	27.832	50.432	27.832	50.4583	27.832	50.2583	27.832	50.3061	27.832	50.0081	27.832	50.0663	27.832	49.7355	27.832	49.7839	27.832	49.5301	27.832	49.5387	27.832	49.5127	27.832	49.4469	27.832	49.7963	27.832	49.6335	27.832	50.4195	27.832	50.1665	27.832	51.3173	27.832	51.0077	27.832	52.3641	27.832	52.0379	27.832	53.4379	27.832	53.1259	27.832	54.4511	27.832	54.1717	27.832	55.3499	27.832	55.1126	27.832	56.1039	27.832	55.9127	27.832	56.696	27.832	56.5525	27.832	57.117	27.832	57.0215	27.832	57.3619	27.832	57.3142	27.832	57.4279
29.2969	52.2355	29.2969	52.1804	29.2969	52.1869	29.2969	52.029	29.2969	52.0399	29.2969	51.8038	29.2969	51.8141	29.2969	51.5487	29.2969	51.5498	29.2969	51.3371	29.2969	51.3167	29.2969	51.2707	29.2969	51.215	29.2969	51.4538	29.2969	51.3538	29.2969	51.9423	29.2969	51.8007	29.2969	52.7049	29.2969	52.5363	29.2969	53.6421	29.2969	53.4651	29.2969	54.6392	29.2969	54.4693	29.2969	55.604	29.2969	55.4509	29.2969	56.4749	29.2969	56.344	29.2969	57.2146	29.2969	57.1086	29.2969	57.8017	29.2969	57.7217	29.2969	58.2237	29.2969	58.1703	29.2969	58.4738	29.2969	58.4471	29.2969	58.5487
30.0293	52.5608	30.0293	52.5067	30.0293	52.5074	30.0293	52.353	30.0293	52.3519	30.0293	52.1231	30.0293	52.1145	30.0293	51.8629	30.0293	51.8376	30.0293	51.6495	30.0293	51.5947	30.0293	51.5894	30.0293	51.4924	30.0293	51.7908	30.0293	51.6459	30.0293	52.3078	30.0293	52.1231	30.0293	53.1025	30.0293	52.8969	30.0293	54.0686	30.0293	53.8624	30.0293	55.0881	30.0293	54.8963	30.0293	56.0688	30.0293	55.8998	30.0293	56.9503	30.0293	56.8082	30.0293	57.697	30.0293	57.5832	30.0293	58.2883	30.0293	58.2031	30.0293	58.7128	30.0293	58.6561	30.0293	58.9639	30.0293	58.9357	30.0293	59.0386
31.4941	54.2535	31.4941	54.1952	31.4941	54.2217	31.4941	54.0538	31.4941	54.1053	31.4941	53.8507	31.4941	53.9234	31.4941	53.6273	31.4941	53.7137	31.4941	53.4497	31.4941	53.5374	31.4941	53.407	31.4941	53.4784	31.4941	53.5883	31.4941	53.6257	31.4941	54.0417	31.4941	54.0348	31.4941	54.7435	31.4941	54.6946	31.4941	55.6105	31.4941	55.5318	31.4941	56.5418	31.4941	56.4482	31.4941	57.4517	31.4941	57.356	31.4941	58.2798	31.4941	58.1912	31.4941	58.988	31.4941	58.9124	31.4941	59.5529	31.4941	59.4939	31.4941	59.961	31.4941	59.9207	31.4941	60.2043	31.4941	60.1839	31.4941	60.279
32.2266	54.8106	32.2266	54.7566	32.2266	54.7812	32.2266	54.6265	32.2266	54.6739	32.2266	54.4429	32.2266	54.509	32.2266	54.2481	32.2266	54.3248	32.2266	54.1081	32.2266	54.1827	32.2266	54.1081	32.2266	54.1638	32.2266	54.3293	32.2266	54.3498	32.2266	54.8103	32.2266	54.7875	32.2266	55.5229	32.2266	55.4606	32.2266	56.3865	32.2266	56.2968	32.2266	57.3059	32.2266	57.2033	32.2266	58.201	32.2266	58.0977	32.2266	59.0146	32.2266	58.9197	32.2266	59.7102	32.2266	59.6294	32.2266	60.2652	32.2266	60.2021	32.2266	60.6659	32.2266	60.6228	32.2266	60.9046	32.2266	60.8828	32.2266	60.9773
33.6914	56.2512	33.6914	56.2029	33.6914	56.2215	33.6914	56.0832	33.6914	56.1188	33.6914	55.9124	33.6914	55.9609	33.6914	55.7279	33.6914	55.7822	33.6914	55.5876	33.6914	55.6365	33.6914	55.5669	33.6914	55.5965	33.6914	55.7405	33.6914	55.7375	33.6914	56.1507	33.6914	56.1086	33.6914	56.7825	33.6914	56.7049	33.6914	57.5701	33.6914	57.4683	33.6914	58.4271	33.6914	58.3146	33.6914	59.2748	33.6914	59.1635	33.6914	60.0543	33.6914	59.9528	33.6914	60.7261	33.6914	60.6402	33.6914	61.2649	33.6914	61.1981	33.6914	61.6552	33.6914	61.6097	33.6914	61.8879	33.6914	61.8649	33.6914	61.9582
34.4238	56.6202	34.4238	56.5672	34.4238	56.5948	34.4238	56.4428	34.4238	56.4958	34.4238	56.2681	34.4238	56.3409	34.4238	56.0814	34.4238	56.1643	34.4238	55.9424	34.4238	56.0202	34.4238	55.9279	34.4238	55.9812	34.4238	56.1132	34.4238	56.1235	34.4238	56.5387	34.4238	56.4967	34.4238	57.1864	34.4238	57.0963	34.4238	57.9874	34.4238	57.8641	34.4238	58.8541	34.4238	58.7154	34.4238	59.7079	34.4238	59.5694	34.4238	60.4907	34.4238	60.3638	34.4238	61.1636	34.4238	61.0559	34.4238	61.7022	34.4238	61.6183	34.4238	62.0911	34.4238	62.034	34.4238	62.3217	34.4238	62.2928	34.4238	62.3893
35.8887	57.9936	35.8887	57.9566	35.8887	57.9675	35.8887	57.8633	35.8887	57.8832	35.8887	57.7337	35.8887	57.7582	35.8887	57.6029	35.8887	57.6251	35.8887	57.5232	35.8887	57.5333	35.8887	57.5582	35.8887	57.5453	35.8887	57.7677	35.8887	57.723	35.8887	58.1823	35.8887	58.1036	35.8887	58.7872	35.8887	58.6802	35.8887	59.5269	35.8887	59.4028	35.8887	60.3284	35.8887	60.1994	35.8887	61.1232	35.8887	60.9996	35.8887	61.8573	35.8887	61.7467	35.8887	62.4929	35.8887	62.4003	35.8887	63.0045	35.8887	62.933	35.8887	63.3759	35.8887	63.3274	35.8887	63.5974	35.8887	63.5729	35.8887	63.6635
37.3535	59.5722	37.3535	59.5403	37.3535	59.554	37.3535	59.4644	37.3535	59.4902	37.3535	59.3626	37.3535	59.3971	37.3535	59.2661	37.3535	59.3036	37.3535	59.2196	37.3535	59.2521	37.3535	59.276	37.3535	59.2941	37.3535	59.484	37.3535	59.4793	37.3535	59.869	37.3535	59.8374	37.3535	60.4204	37.3535	60.3637	37.3535	61.0941	37.3535	61.0189	37.3535	61.8288	37.3535	61.7441	37.3535	62.5639	37.3535	62.4783	37.3535	63.2489	37.3535	63.1694	37.3535	63.8465	37.3535	63.7782	37.3535	64.3308	37.3535	64.2771	37.3535	64.6844	37.3535	64.6475	37.3535	64.8966	37.3535	64.8779	37.3535	64.9617
38.8184	61.0489	38.8184	61.016	38.8184	61.038	38.8184	60.9451	38.8184	60.9876	38.8184	60.8522	38.8184	60.9117	38.8184	60.7648	38.8184	60.8353	38.8184	60.7218	38.8184	60.7946	38.8184	60.7693	38.8184	60.8335	38.8184	60.9503	38.8184	60.9948	38.8184	61.2897	38.8184	61.3067	38.8184	61.7822	38.8184	61.7696	38.8184	62.3925	38.8184	62.3544	38.8184	63.0676	38.8184	63.0118	38.8184	63.7514	38.8184	63.687	38.8184	64.3953	38.8184	64.3305	38.8184	64.9616	38.8184	64.903	38.8184	65.4231	38.8184	65.3755	38.8184	65.7617	38.8184	65.7283	38.8184	65.9654	38.8184	65.9483	38.8184	66.0282
39.5508	61.7343	39.5508	61.7028	39.5508	61.7242	39.5508	61.6352	39.5508	61.6761	39.5508	61.547	39.5508	61.6034	39.5508	61.4643	39.5508	61.5295	39.5508	61.4239	39.5508	61.4884	39.5508	61.4694	39.5508	61.5217	39.5508	61.6415	39.5508	61.6704	39.5508	61.9646	39.5508	61.9624	39.5508	62.435	39.5508	62.4005	39.5508	63.0206	39.5508	62.9591	39.5508	63.6714	39.5508	63.5922	39.5508	64.3337	39.5508	64.2472	39.5508	64.9596	39.5508	64.8751	39.5508	65.5116	39.5508	65.4363	39.5508	65.9621	39.5508	65.9016	39.5508	66.2924	39.5508	66.2503	39.5508	66.4905	39.5508	66.4689	39.5508	66.5499
41.0156	62.983	41.0156	62.9581	41.0156	62.9684	41.0156	62.8993	41.0156	62.9175	41.0156	62.8214	41.0156	62.8426	41.0156	62.7489	41.0156	62.7658	41.0156	62.716	41.0156	62.7192	41.0156	62.7629	41.0156	62.7424	41.0156	62.927	41.0156	62.8756	41.0156	63.2315	41.0156	63.147	41.0156	63.6745	41.0156	63.5613	41.0156	64.2278	41.0156	64.0958	41.0156	64.8461	41.0156	64.7072	41.0156	65.4786	41.0156	65.344	41.0156	66.0793	41.0156	65.9577	41.0156	66.611	41.0156	66.5086	41.0156	67.046	41.0156	66.9667	41.0156	67.3651	41.0156	67.3112	41.0156	67.5557	41.0156	67.5285	41.0156	67.6108
42.4805	64.2782	42.4805	64.2604	42.4805	64.2662	42.4805	64.2177	42.4805	64.2278	42.4805	64.1635	42.4805	64.1744	42.4805	64.1197	42.4805	64.1263	42.4805	64.1159	42.4805	64.112	42.4805	64.1861	42.4805	64.1652	42.4805	64.3616	42.4805	64.3187	42.4805	64.661	42.4805	64.5945	42.4805	65.0823	42.4805	64.9947	42.4805	65.6016	42.4805	65.4995	42.4805	66.18	42.4805	66.0716	42.4805	66.7727	42.4805	66.6663	42.4805	67.3378	42.4805	67.2403	42.4805	67.8402	42.4805	67.7569	42.4805	68.253	42.4805	68.1878	42.4805	68.557	42.4805	68.5123	42.4805	68.7395	42.4805	68.7169	42.4805	68.7935
43.9453	65.7563	43.9453	65.7405	43.9453	65.7465	43.9453	65.7035	43.9453	65.7141	43.9453	65.6568	43.9453	65.6693	43.9453	65.6193	43.9453	65.6298	43.9453	65.6169	43.9453	65.6203	43.9453	65.6791	43.9453	65.67	43.9453	65.8335	43.9453	65.8074	43.9453	66.0979	43.9453	66.0528	43.9453	66.4732	43.9453	66.4103	43.9453	66.9411	43.9453	66.8647	43.9453	67.4685	43.9453	67.3849	43.9453	68.0153	43.9453	67.9314	43.9453	68.542	43.9453	68.4638	43.9453	69.0144	43.9453	68.9467	43.9453	69.4053	43.9453	69.3518	43.9453	69.6949	43.9453	69.658	43.9453	69.8699	43.9453	69.8511	43.9453	69.9227
45.4102	67.0288	45.4102	67.0159	45.4102	67.0197	45.4102	66.9849	45.4102	66.9912	45.4102	66.9461	45.4102	66.9526	45.4102	66.9169	45.4102	66.92	45.4102	66.9202	45.4102	66.9157	45.4102	66.9826	45.4102	66.9657	45.4102	67.1288	45.4102	67.096	45.4102	67.3754	45.4102	67.3251	45.4102	67.7242	45.4102	67.6576	45.4102	68.16	45.4102	68.0812	45.4102	68.6535	45.4102	68.5685	45.4102	69.1683	45.4102	69.0833	45.4102	69.667	45.4102	69.588	45.4102	70.1165	45.4102	70.0482	45.4102	70.4899	45.4102	70.4359	45.4102	70.7674	45.4102	70.7301	45.4102	70.9351	45.4102	70.9161	45.4102	70.9855
47.6074	69.0161	47.6074	69.0059	47.6074	69.0097	47.6074	68.9824	47.6074	68.9889	47.6074	68.9546	47.6074	68.9618	47.6074	68.937	47.6074	68.9418	47.6074	68.9489	47.6074	68.9477	47.6074	69.0125	47.6074	69.001	47.6074	69.1485	47.6074	69.1234	47.6074	69.3712	47.6074	69.3307	47.6074	69.6832	47.6074	69.6278	47.6074	70.073	47.6074	70.0057	47.6074	70.5168	47.6074	70.4425	47.6074	70.9831	47.6074	70.9074	47.6074	71.4385	47.6074	71.3668	47.6074	71.8519	47.6074	71.7891	47.6074	72.1975	47.6074	72.1474	47.6074	72.4554	47.6074	72.4205	47.6074	72.6118	47.6074	72.5939	47.6074	72.6587
49.0723	70.3207	49.0723	70.312	49.0723	70.3157	49.0723	70.2927	49.0723	70.2992	49.0723	70.2706	49.0723	70.2782	49.0723	70.2588	49.0723	70.2649	49.0723	70.2743	49.0723	70.2758	49.0723	70.3367	49.0723	70.33	49.0723	70.4645	49.0723	70.4467	49.0723	70.6708	49.0723	70.6401	49.0723	70.9585	49.0723	70.915	49.0723	71.3186	49.0723	71.2645	49.0723	71.7303	49.0723	71.6694	49.0723	72.1654	49.0723	72.1024	49.0723	72.5927	49.0723	72.5325	49.0723	72.9829	49.0723	72.9297	49.0723	73.3107	49.0723	73.2679	49.0723	73.5564	49.0723	73.5265	49.0723	73.706	49.0723	73.6907	49.0723	73.7516
50.5371	71.587	50.5371	71.5798	50.5371	71.5836	50.5371	71.5648	50.5371	71.5716	50.5371	71.5491	50.5371	71.5572	50.5371	71.5444	50.5371	71.5512	50.5371	71.5656	50.5371	71.5682	50.5371	71.6301	50.5371	71.6251	50.5371	71.7542	50.5371	71.7386	50.5371	71.9494	50.5371	71.9215	50.5371	72.2188	50.5371	72.1785	50.5371	72.5547	50.5371	72.5039	50.5371	72.939	50.5371	72.8812	50.5371	73.3462	50.5371	73.2859	50.5371	73.7477	50.5371	73.6895	50.5371	74.1157	50.5371	74.064	50.5371	74.4259	50.5371	74.3841	50.5371	74.6589	50.5371	74.6296	50.5371	74.801	50.5371	74.786	50.5371	74.8442
52.7344	73.5321	52.7344	73.5281	52.7344	73.5289	52.7344	73.5189	52.7344	73.5199	52.7344	73.5106	52.7344	73.5104	52.7344	73.5127	52.7344	73.5094	52.7344	73.5374	52.7344	73.5289	52.7344	73.5991	52.7344	73.5828	52.7344	73.7111	52.7344	73.6851	52.7344	73.8836	52.7344	73.8468	52.7344	74.1201	52.7344	74.0726	52.7344	74.415	52.7344	74.3588	52.7344	74.7542	52.7344	74.6925	52.7344	75.1164	52.7344	75.0532	52.7344	75.4764	52.7344	75.4162	52.7344	75.8089	52.7344	75.7556	52.7344	76.0909	52.7344	76.048	52.7344	76.3037	52.7344	76.2737	52.7344	76.4336	52.7344	76.4182	52.7344	76.4726
54.1992	74.8258	54.1992	74.8231	54.1992	74.8231	54.1992	74.8168	54.1992	74.8162	54.1992	74.8121	54.1992	74.8098	54.1992	74.8173	54.1992	74.8119	54.1992	74.8434	54.1992	74.833	54.1992	74.9029	54.1992	74.8855	54.1992	75.0076	54.1992	74.9816	54.1992	75.1669	54.1992	75.1314	54.1992	75.3843	54.1992	75.3394	54.1992	75.6555	54.1992	75.603	54.1992	75.9685	54.1992	75.911	54.1992	76.3041	54.1992	76.2453	54.1992	76.6395	54.1992	76.5833	54.1992	76.9508	54.1992	76.9009	54.1992	77.2159	54.1992	77.1757	54.1992	77.4167	54.1992	77.3884	54.1992	77.5395	54.1992	77.525	54.1992	77.5764
56.3965	76.6704	56.3965	76.6687	56.3965	76.6686	56.3965	76.6652	56.3965	76.6646	56.3965	76.6641	56.3965	76.6623	56.3965	76.6724	56.3965	76.6683	56.3965	76.6991	56.3965	76.6914	56.3965	76.7545	56.3965	76.7419	56.3965	76.8489	56.3965	76.8301	56.3965	76.9903	56.3965	76.9646	56.3965	77.1823	56.3965	77.1496	56.3965	77.4223	56.3965	77.3835	56.3965	77.7004	56.3965	77.6574	56.3965	78.0007	56.3965	77.9562	56.3965	78.303	56.3965	78.2599	56.3965	78.5857	56.3965	78.5471	56.3965	78.8282	56.3965	78.7967	56.3965	79.0129	56.3965	78.9907	56.3965	79.1267	56.3965	79.1152	56.3965	79.1616
