"SPL Vertical"
"On-Axis"		"10°"		"-10°"		"20°"		"-20°"		"30°"		"-30°"		"40°"		"-40°"		"50°"		"-50°"		"60°"		"-60°"		"70°"		"-70°"		"80°"		"-80°"		"90°"		"-90°"		"100°"		"-100°"		"110°"		"-110°"		"120°"		"-120°"		"130°"		"-130°"		"140°"		"-140°"		"150°"		"-150°"		"160°"		"-160°"		"170°"		"-170°"		"180°"
"Frequency / Hz"	"Sound Pressure Level / dB (re 20 µPa/V)  [2.83  V @ 1. m]"	"Frequency / Hz"	"Sound Pressure Level / dB (re 20 µPa/V)  [2.83  V @ 1. m]"	"Frequency / Hz"	"Sound Pressure Level / dB (re 20 µPa/V)  [2.83  V @ 1. m]"	"Frequency / Hz"	"Sound Pressure Level / dB (re 20 µPa/V)  [2.83  V @ 1. m]"	"Frequency / Hz"	"Sound Pressure Level / dB (re 20 µPa/V)  [2.83  V @ 1. m]"	"Frequency / Hz"	"Sound Pressure Level / dB (re 20 µPa/V)  [2.83  V @ 1. m]"	"Frequency / Hz"	"Sound Pressure Level / dB (re 20 µPa/V)  [2.83  V @ 1. m]"	"Frequency / Hz"	"Sound Pressure Level / dB (re 20 µPa/V)  [2.83  V @ 1. m]"	"Frequency / Hz"	"Sound Pressure Level / dB (re 20 µPa/V)  [2.83  V @ 1. m]"	"Frequency / Hz"	"Sound Pressure Level / dB (re 20 µPa/V)  [2.83  V @ 1. m]"	"Frequency / Hz"	"Sound Pressure Level / dB (re 20 µPa/V)  [2.83  V @ 1. m]"	"Frequency / Hz"	"Sound Pressure Level / dB (re 20 µPa/V)  [2.83  V @ 1. m]"	"Frequency / Hz"	"Sound Pressure Level / dB (re 20 µPa/V)  [2.83  V @ 1. m]"	"Frequency / Hz"	"Sound Pressure Level / dB (re 20 µPa/V)  [2.83  V @ 1. m]"	"Frequency / Hz"	"Sound Pressure Level / dB (re 20 µPa/V)  [2.83  V @ 1. m]"	"Frequency / Hz"	"Sound Pressure Level / dB (re 20 µPa/V)  [2.83  V @ 1. m]"	"Frequency / Hz"	"Sound Pressure Level / dB (re 20 µPa/V)  [2.83  V @ 1. m]"	"Frequency / Hz"	"Sound Pressure Level / dB (re 20 µPa/V)  [2.83  V @ 1. m]"	"Frequency / Hz"	"Sound Pressure Level / dB (re 20 µPa/V)  [2.83  V @ 1. m]"	"Frequency / Hz"	"Sound Pressure Level / dB (re 20 µPa/V)  [2.83  V @ 1. m]"	"Frequency / Hz"	"Sound Pressure Level / dB (re 20 µPa/V)  [2.83  V @ 1. m]"	"Frequency / Hz"	"Sound Pressure Level / dB (re 20 µPa/V)  [2.83  V @ 1. m]"	"Frequency / Hz"	"Sound Pressure Level / dB (re 20 µPa/V)  [2.83  V @ 1. m]"	"Frequency / Hz"	"Sound Pressure Level / dB (re 20 µPa/V)  [2.83  V @ 1. m]"	"Frequency / Hz"	"Sound Pressure Level / dB (re 20 µPa/V)  [2.83  V @ 1. m]"	"Frequency / Hz"	"Sound Pressure Level / dB (re 20 µPa/V)  [2.83  V @ 1. m]"	"Frequency / Hz"	"Sound Pressure Level / dB (re 20 µPa/V)  [2.83  V @ 1. m]"	"Frequency / Hz"	"Sound Pressure Level / dB (re 20 µPa/V)  [2.83  V @ 1. m]"	"Frequency / Hz"	"Sound Pressure Level / dB (re 20 µPa/V)  [2.83  V @ 1. m]"	"Frequency / Hz"	"Sound Pressure Level / dB (re 20 µPa/V)  [2.83  V @ 1. m]"	"Frequency / Hz"	"Sound Pressure Level / dB (re 20 µPa/V)  [2.83  V @ 1. m]"	"Frequency / Hz"	"Sound Pressure Level / dB (re 20 µPa/V)  [2.83  V @ 1. m]"	"Frequency / Hz"	"Sound Pressure Level / dB (re 20 µPa/V)  [2.83  V @ 1. m]"	"Frequency / Hz"	"Sound Pressure Level / dB (re 20 µPa/V)  [2.83  V @ 1. m]"	"Frequency / Hz"	"Sound Pressure Level / dB (re 20 µPa/V)  [2.83  V @ 1. m]"	"Frequency / Hz"	"Sound Pressure Level / dB (re 20 µPa/V)  [2.83  V @ 1. m]"
20.5078	46.1633	20.5078	45.253	20.5078	46.756	20.5078	44.0493	20.5078	47.0269	20.5078	42.7007	20.5078	46.9601	20.5078	41.7299	20.5078	46.5165	20.5078	42.0338	20.5078	45.629	20.5078	43.7317	20.5078	44.2225	20.5078	45.965	20.5078	42.3902	20.5078	48.1359	20.5078	41.2197	20.5078	50.0686	20.5078	42.7767	20.5078	51.7472	20.5078	45.9502	20.5078	53.1917	20.5078	48.9394	20.5078	54.4234	20.5078	51.3812	20.5078	55.4556	20.5078	53.3192	20.5078	56.2936	20.5078	54.8314	20.5078	56.9355	20.5078	55.9772	20.5078	57.3733	20.5078	56.7988	20.5078	57.5952	20.5078	57.3269	20.5078	57.5856
21.9727	49.5004	21.9727	49.0187	21.9727	49.8524	21.9727	48.499	21.9727	50.0253	21.9727	48.1018	21.9727	49.9916	21.9727	48.0489	21.9727	49.7397	21.9727	48.5174	21.9727	49.2872	21.9727	49.4944	21.9727	48.7275	21.9727	50.7945	21.9727	48.3192	21.9727	52.2125	21.9727	48.5068	21.9727	53.6117	21.9727	49.5781	21.9727	54.9214	21.9727	51.2846	21.9727	56.1092	21.9727	53.1622	21.9727	57.16	21.9727	54.9176	21.9727	58.0645	21.9727	56.4334	21.9727	58.8139	21.9727	57.6772	21.9727	59.3978	21.9727	58.6475	21.9727	59.8038	21.9727	59.3534	21.9727	60.0175	21.9727	59.8075	21.9727	60.0239
23.4375	52.0038	23.4375	51.5652	23.4375	52.3235	23.4375	51.0839	23.4375	52.4812	23.4375	50.6896	23.4375	52.452	23.4375	50.5658	23.4375	52.2242	23.4375	50.881	23.4375	51.8102	23.4375	51.6712	23.4375	51.2817	23.4375	52.8109	23.4375	50.8401	23.4375	54.1177	23.4375	50.8563	23.4375	55.4481	23.4375	51.6535	23.4375	56.7173	23.4375	53.129	23.4375	57.8814	23.4375	54.8783	23.4375	58.9175	23.4375	56.5787	23.4375	59.8118	23.4375	58.0781	23.4375	60.5526	23.4375	59.3234	23.4375	61.1279	23.4375	60.3034	23.4375	61.5242	23.4375	61.0223	23.4375	61.7268	23.4375	61.4905	23.4375	61.7206
24.9023	54.5803	24.9023	54.2506	24.9023	54.8343	24.9023	53.9108	24.9023	54.9731	24.9023	53.6605	24.9023	54.9765	24.9023	53.6249	24.9023	54.8417	24.9023	53.913	24.9023	54.5936	24.9023	54.5556	24.9023	54.307	24.9023	55.4862	24.9023	54.137	24.9023	56.5864	24.9023	54.3102	24.9023	57.7449	24.9023	54.9991	24.9023	58.8821	24.9023	56.1595	24.9023	59.9485	24.9023	57.5674	24.9023	60.9137	24.9023	58.996	24.9023	61.757	24.9023	60.3023	24.9023	62.4624	24.9023	61.4154	24.9023	63.0148	24.9023	62.3059	24.9023	63.399	24.9023	62.9653	24.9023	63.6	24.9023	63.3953	24.9023	63.6032
26.3672	57.0223	26.3672	56.7818	26.3672	57.2176	26.3672	56.5494	26.3672	57.3329	26.3672	56.3982	26.3672	57.3494	26.3672	56.4129	26.3672	57.2652	26.3672	56.665	26.3672	57.1016	26.3672	57.1813	26.3672	56.9181	26.3672	57.9296	26.3672	56.8281	26.3672	58.8373	26.3672	56.9892	26.3672	59.8232	26.3672	57.5319	26.3672	60.8189	26.3672	58.457	26.3672	61.7743	26.3672	59.6286	26.3672	62.6541	26.3672	60.8699	26.3672	63.4327	26.3672	62.0443	26.3672	64.0893	26.3672	63.0698	26.3672	64.6056	26.3672	63.9046	26.3672	64.9646	26.3672	64.5308	26.3672	65.1501	26.3672	64.9437	26.3672	65.1472
27.832	59.7231	27.832	59.5236	27.832	59.8877	27.832	59.3291	27.832	59.9916	27.832	59.193	27.832	60.0212	27.832	59.1778	27.832	59.9772	27.832	59.3412	27.832	59.8792	27.832	59.7158	27.832	59.7743	27.832	60.2951	27.832	59.7445	27.832	61.0362	27.832	59.8986	27.832	61.8779	27.832	60.3303	27.832	62.7591	27.832	61.0585	27.832	63.6285	27.832	62.0068	27.832	64.4463	27.832	63.0496	27.832	65.1819	27.832	64.069	27.832	65.8104	27.832	64.9814	27.832	66.3105	27.832	65.7362	27.832	66.6634	27.832	66.3069	27.832	66.8521	27.832	66.6824	27.832	66.8622
29.2969	61.6588	29.2969	61.5045	29.2969	61.792	29.2969	61.3614	29.2969	61.8826	29.2969	61.271	29.2969	61.9192	29.2969	61.2801	29.2969	61.9031	29.2969	61.4315	29.2969	61.8512	29.2969	61.7517	29.2969	61.8023	29.2969	62.2406	29.2969	61.8199	29.2969	62.8716	29.2969	61.9855	29.2969	63.6006	29.2969	62.3696	29.2969	64.3786	29.2969	62.9923	29.2969	65.1603	29.2969	63.8049	29.2969	65.9071	29.2969	64.7137	29.2969	66.5874	29.2969	65.6198	29.2969	67.1747	29.2969	66.4447	29.2969	67.646	29.2969	67.136	29.2969	67.9811	29.2969	67.6629	29.2969	68.1625	29.2969	68.0107	29.2969	68.1758
30.7617	63.628	30.7617	63.4996	30.7617	63.747	30.7617	63.3879	30.7617	63.8387	30.7617	63.3255	30.7617	63.894	30.7617	63.3481	30.7617	63.9141	30.7617	63.4883	30.7617	63.9131	30.7617	63.7669	30.7617	63.9214	30.7617	64.1868	30.7617	63.9863	30.7617	64.7309	30.7617	64.1659	30.7617	65.3676	30.7617	64.5112	30.7617	66.0582	30.7617	65.041	30.7617	66.7635	30.7617	65.7274	30.7617	67.4478	30.7617	66.5049	30.7617	68.0797	30.7617	67.2954	30.7617	68.6316	30.7617	68.0287	30.7617	69.0792	30.7617	68.6526	30.7617	69.4012	30.7617	69.1329	30.7617	69.5791	30.7617	69.4506	30.7617	69.5986
32.2266	65.3083	32.2266	65.2162	32.2266	65.4011	32.2266	65.1453	32.2266	65.4797	32.2266	65.121	32.2266	65.5369	32.2266	65.1698	32.2266	65.574	32.2266	65.3157	32.2266	65.6031	32.2266	65.5741	32.2266	65.6487	32.2266	65.9477	32.2266	65.7474	32.2266	66.4255	32.2266	65.9428	32.2266	66.9848	32.2266	66.2722	32.2266	67.5957	32.2266	66.7499	32.2266	68.226	32.2266	67.3563	32.2266	68.8441	32.2266	68.042	32.2266	69.4206	32.2266	68.7442	32.2266	69.9285	32.2266	69.4022	32.2266	70.3435	32.2266	69.9675	32.2266	70.6439	32.2266	70.4058	32.2266	70.8114	32.2266	70.6968	32.2266	70.8317
33.6914	67.17	33.6914	67.095	33.6914	67.2494	33.6914	67.0405	33.6914	67.3221	33.6914	67.0253	33.6914	67.3825	33.6914	67.0697	33.6914	67.4318	33.6914	67.1922	33.6914	67.4794	33.6914	67.4059	33.6914	67.5437	33.6914	67.7154	33.6914	67.6522	33.6914	68.115	33.6914	67.8366	33.6914	68.5897	33.6914	68.1251	33.6914	69.1169	33.6914	68.5303	33.6914	69.6702	33.6914	69.0408	33.6914	70.2212	33.6914	69.6219	33.6914	70.7425	33.6914	70.2245	33.6914	71.2073	33.6914	70.797	33.6914	71.5913	33.6914	71.2945	33.6914	71.8725	33.6914	71.6832	33.6914	72.0326	33.6914	71.9411	33.6914	72.0578
35.1562	68.586	35.1562	68.5133	35.1562	68.6648	35.1562	68.46	35.1562	68.7405	35.1562	68.4417	35.1562	68.8083	35.1562	68.4754	35.1562	68.8692	35.1562	68.577	35.1562	68.9307	35.1562	68.7585	35.1562	69.0076	35.1562	69.0252	35.1562	69.1214	35.1562	69.3746	35.1562	69.2974	35.1562	69.7956	35.1562	69.5584	35.1562	70.2699	35.1562	69.916	35.1562	70.7745	35.1562	70.3634	35.1562	71.2836	35.1562	70.8742	35.1562	71.7709	35.1562	71.4078	35.1562	72.2103	35.1562	71.919	35.1562	72.5774	35.1562	72.366	35.1562	72.8502	35.1562	72.7156	35.1562	73.0103	35.1562	72.9456	35.1562	73.0443
36.6211	69.9335	36.6211	69.874	36.6211	70.0039	36.6211	69.8356	36.6211	70.0777	36.6211	69.8307	36.6211	70.1512	36.6211	69.8726	36.6211	70.2253	36.6211	69.9734	36.6211	70.3058	36.6211	70.1425	36.6211	70.4041	36.6211	70.3847	36.6211	70.5365	36.6211	70.6982	36.6211	70.7215	36.6211	71.075	36.6211	70.9757	36.6211	71.5007	36.6211	71.3072	36.6211	71.9563	36.6211	71.7104	36.6211	72.4198	36.6211	72.1646	36.6211	72.8672	36.6211	72.6371	36.6211	73.2745	36.6211	73.0896	36.6211	73.6183	36.6211	73.4854	36.6211	73.8774	36.6211	73.7941	36.6211	74.0339	36.6211	73.9944	36.6211	74.075
38.0859	71.1596	38.0859	71.1028	38.0859	71.2292	38.0859	71.0673	38.0859	71.3053	38.0859	71.0632	38.0859	71.3846	38.0859	71.1012	38.0859	71.4674	38.0859	71.1911	38.0859	71.5579	38.0859	71.3409	38.0859	71.6646	38.0859	71.5546	38.0859	71.8	38.0859	71.8319	38.0859	71.9783	38.0859	72.1667	38.0859	72.2126	38.0859	72.5479	38.0859	72.5095	38.0859	72.9595	38.0859	72.8657	38.0859	73.3823	38.0859	73.265	38.0859	73.7946	38.0859	73.681	38.0859	74.1738	38.0859	74.0809	38.0859	74.4973	38.0859	74.4316	38.0859	74.7445	38.0859	74.7047	38.0859	74.8978	38.0859	74.8797	38.0859	74.9448
39.5508	72.1884	39.5508	72.1354	39.5508	72.2559	39.5508	72.1036	39.5508	72.3327	39.5508	72.1011	39.5508	72.4158	39.5508	72.1365	39.5508	72.5052	39.5508	72.2178	39.5508	72.6039	39.5508	72.3515	39.5508	72.7181	39.5508	72.5415	39.5508	72.857	39.5508	72.7882	39.5508	73.0314	39.5508	73.0872	39.5508	73.2511	39.5508	73.4298	39.5508	73.5214	39.5508	73.8029	39.5508	73.8399	39.5508	74.1894	39.5508	74.1939	39.5508	74.5699	39.5508	74.5615	39.5508	74.923	39.5508	74.9149	39.5508	75.2276	39.5508	75.2247	39.5508	75.4634	39.5508	75.4649	39.5508	75.6137	39.5508	75.6159	39.5508	75.6663
41.0156	73.1002	41.0156	73.0511	41.0156	73.1651	41.0156	73.0235	41.0156	73.2416	41.0156	73.0239	41.0156	73.3272	41.0156	73.0592	41.0156	73.4217	41.0156	73.1362	41.0156	73.5271	41.0156	73.2602	41.0156	73.6481	41.0156	73.4346	41.0156	73.7915	41.0156	73.6597	41.0156	73.9654	41.0156	73.9325	41.0156	74.1768	41.0156	74.2456	41.0156	74.4297	41.0156	74.5878	41.0156	74.7214	41.0156	74.9444	41.0156	75.0415	41.0156	75.2975	41.0156	75.3717	41.0156	75.6278	41.0156	75.6877	41.0156	75.9151	41.0156	75.9638	41.0156	76.1404	41.0156	76.1762	41.0156	76.2874	41.0156	76.3066	41.0156	76.3445
42.4805	74.0197	42.4805	73.9742	42.4805	74.0825	42.4805	73.9506	42.4805	74.1591	42.4805	73.9539	42.4805	74.2474	42.4805	73.9895	42.4805	74.3468	42.4805	74.0624	42.4805	74.4586	42.4805	74.1768	42.4805	74.5856	42.4805	74.3354	42.4805	74.7327	42.4805	74.5388	42.4805	74.9052	42.4805	74.7845	42.4805	75.108	42.4805	75.0668	42.4805	75.3433	42.4805	75.3767	42.4805	75.6087	42.4805	75.7014	42.4805	75.8952	42.4805	76.0256	42.4805	76.1876	42.4805	76.3314	42.4805	76.4653	42.4805	76.6003	42.4805	76.706	42.4805	76.8145	42.4805	76.8886	42.4805	76.9583	42.4805	76.9968	42.4805	77.0208
43.9453	74.8799	43.9453	74.8369	43.9453	74.9389	43.9453	74.8133	43.9453	75.0112	43.9453	74.8129	43.9453	75.0952	43.9453	74.84	43.9453	75.1903	43.9453	74.8988	43.9453	75.2972	43.9453	74.9933	43.9453	75.4177	43.9453	75.1261	43.9453	75.5549	43.9453	75.2986	43.9453	75.7127	43.9453	75.5097	43.9453	75.8944	43.9453	75.7555	43.9453	76.1018	43.9453	76.0288	43.9453	76.333	43.9453	76.3187	43.9453	76.5811	43.9453	76.6114	43.9453	76.8337	43.9453	76.8907	43.9453	77.0735	43.9453	77.1391	43.9453	77.2811	43.9453	77.3395	43.9453	77.4374	43.9453	77.477	43.9453	77.5272	43.9453	77.5411
45.4102	75.5284	45.4102	75.4833	45.4102	75.5907	45.4102	75.4584	45.4102	75.6677	45.4102	75.4571	45.4102	75.7578	45.4102	75.4831	45.4102	75.8599	45.4102	75.5399	45.4102	75.9742	45.4102	75.6308	45.4102	76.1016	45.4102	75.758	45.4102	76.2441	45.4102	75.9225	45.4102	76.4039	45.4102	76.1232	45.4102	76.5832	45.4102	76.3565	45.4102	76.7827	45.4102	76.6159	45.4102	77.0003	45.4102	76.8916	45.4102	77.2301	45.4102	77.1709	45.4102	77.4611	45.4102	77.4387	45.4102	77.6783	45.4102	77.6785	45.4102	77.8643	45.4102	77.8743	45.4102	78.0018	45.4102	78.0119	45.4102	78.0769	45.4102	78.0809
46.875	76.1127	46.875	76.0694	46.875	76.1745	46.875	76.0468	46.875	76.2525	46.875	76.0476	46.875	76.3453	46.875	76.0745	46.875	76.4516	46.875	76.1303	46.875	76.5709	46.875	76.2176	46.875	76.7034	46.875	76.338	46.875	76.8497	46.875	76.4923	46.875	77.0107	46.875	76.6798	46.875	77.1873	46.875	76.8974	46.875	77.3793	46.875	77.1396	46.875	77.5844	46.875	77.3978	46.875	77.7971	46.875	77.6608	46.875	78.0079	46.875	77.9147	46.875	78.2036	46.875	78.1442	46.875	78.3689	46.875	78.334	46.875	78.4883	46.875	78.4705	46.875	78.5492	46.875	78.5438
48.3398	76.6574	48.3398	76.615	48.3398	76.7186	48.3398	76.5932	48.3398	76.797	48.3398	76.594	48.3398	76.891	48.3398	76.6195	48.3398	76.9995	48.3398	76.6718	48.3398	77.1214	48.3398	76.7528	48.3398	77.2561	48.3398	76.8641	48.3398	77.4032	48.3398	77.0063	48.3398	77.5625	48.3398	77.1789	48.3398	77.7337	48.3398	77.3796	48.3398	77.9159	48.3398	77.6036	48.3398	78.1065	48.3398	77.8435	48.3398	78.3006	48.3398	78.0893	48.3398	78.49	48.3398	78.3284	48.3398	78.6634	48.3398	78.5465	48.3398	78.8073	48.3398	78.7293	48.3398	78.9083	48.3398	78.8639	48.3398	78.9551	48.3398	78.9407
51.2695	77.6085	51.2695	77.5636	51.2695	77.6741	51.2695	77.5407	51.2695	77.759	51.2695	77.5409	51.2695	77.8615	51.2695	77.5654	51.2695	77.9799	51.2695	77.6152	51.2695	78.1121	51.2695	77.6913	51.2695	78.2561	51.2695	77.7942	51.2695	78.4097	51.2695	77.9242	51.2695	78.5709	51.2695	78.0805	51.2695	78.7376	51.2695	78.2611	51.2695	78.9076	51.2695	78.4622	51.2695	79.0781	51.2695	78.678	51.2695	79.2446	51.2695	78.9003	51.2695	79.401	51.2695	79.1186	51.2695	79.539	51.2695	79.3208	51.2695	79.6484	51.2695	79.4942	51.2695	79.7188	51.2695	79.6272	51.2695	79.7415	51.2695	79.7112
52.7344	77.9825	52.7344	77.9408	52.7344	78.0463	52.7344	77.9222	52.7344	78.131	52.7344	77.9274	52.7344	78.2349	52.7344	77.9569	52.7344	78.3559	52.7344	78.0109	52.7344	78.4917	52.7344	78.0898	52.7344	78.6396	52.7344	78.1935	52.7344	78.7968	52.7344	78.3217	52.7344	78.9605	52.7344	78.4733	52.7344	79.1279	52.7344	78.6465	52.7344	79.2962	52.7344	78.8379	52.7344	79.462	52.7344	79.0424	52.7344	79.6212	52.7344	79.2528	52.7344	79.7679	52.7344	79.4597	52.7344	79.8947	52.7344	79.6523	52.7344	79.9928	52.7344	79.8189	52.7344	80.0531	52.7344	79.9487	52.7344	80.0681	52.7344	80.0333
54.1992	78.3625	54.1992	78.329	54.1992	78.4194	54.1992	78.319	54.1992	78.4989	54.1992	78.3324	54.1992	78.5996	54.1992	78.369	54.1992	78.7195	54.1992	78.4281	54.1992	78.8561	54.1992	78.5093	54.1992	79.0061	54.1992	78.6118	54.1992	79.166	54.1992	78.735	54.1992	79.3321	54.1992	78.8778	54.1992	79.5004	54.1992	79.0386	54.1992	79.667	54.1992	79.2148	54.1992	79.828	54.1992	79.4022	54.1992	79.9791	54.1992	79.595	54.1992	80.1148	54.1992	79.7854	54.1992	80.2288	54.1992	79.9641	54.1992	80.3137	54.1992	80.1205	54.1992	80.3623	54.1992	80.2449	54.1992	80.3685	54.1992	80.3291
55.6641	78.7661	55.6641	78.7333	55.6641	78.8212	55.6641	78.7225	55.6641	78.8981	55.6641	78.7331	55.6641	78.9958	55.6641	78.7645	55.6641	79.1122	55.6641	78.8155	55.6641	79.2447	55.6641	78.8856	55.6641	79.3896	55.6641	78.9739	55.6641	79.5429	55.6641	79.08	55.6641	79.7001	55.6641	79.203	55.6641	79.8568	55.6641	79.3421	55.6641	80.0087	55.6641	79.4955	55.6641	80.1517	55.6641	79.6602	55.6641	80.2819	55.6641	79.8317	55.6641	80.3949	55.6641	80.0035	55.6641	80.4857	55.6641	80.1675	55.6641	80.5487	55.6641	80.3144	55.6641	80.5783	55.6641	80.4351	55.6641	80.57	55.6641	80.5219
58.5938	79.4103	58.5938	79.3734	58.5938	79.4663	58.5938	79.3549	58.5938	79.5412	58.5938	79.3539	58.5938	79.6341	58.5938	79.3691	58.5938	79.7431	58.5938	79.3994	58.5938	79.8652	58.5938	79.4441	58.5938	79.9964	58.5938	79.5026	58.5938	80.1323	58.5938	79.5747	58.5938	80.2678	58.5938	79.6605	58.5938	80.3981	58.5938	79.7601	58.5938	80.5187	58.5938	79.8732	58.5938	80.6258	58.5938	79.9988	58.5938	80.7162	58.5938	80.1341	58.5938	80.7871	58.5938	80.2748	58.5938	80.8357	58.5938	80.4149	58.5938	80.8592	58.5938	80.5467	58.5938	80.8546	58.5938	80.6625	58.5938	80.82	58.5938	80.7552
60.0586	79.6802	60.0586	79.6362	60.0586	79.7423	60.0586	79.6099	60.0586	79.8221	60.0586	79.6005	60.0586	79.9182	60.0586	79.6069	60.0586	80.0282	60.0586	79.6282	60.0586	80.1487	60.0586	79.6635	60.0586	80.2755	60.0586	79.7122	60.0586	80.4037	60.0586	79.7742	60.0586	80.5283	60.0586	79.8496	60.0586	80.6444	60.0586	79.9384	60.0586	80.7479	60.0586	80.0404	60.0586	80.8357	60.0586	80.1547	60.0586	80.9054	60.0586	80.2787	60.0586	80.9557	60.0586	80.4088	60.0586	80.985	60.0586	80.5392	60.0586	80.9921	60.0586	80.6632	60.0586	80.9751	60.0586	80.7739	60.0586	80.9329	60.0586	80.8652
62.9883	80.2497	62.9883	80.2089	62.9883	80.3113	62.9883	80.1882	62.9883	80.3935	62.9883	80.1863	62.9883	80.4952	62.9883	80.2016	62.9883	80.6138	62.9883	80.2324	62.9883	80.746	62.9883	80.2773	62.9883	80.8868	62.9883	80.3352	62.9883	81.031	62.9883	80.4052	62.9883	81.1724	62.9883	80.487	62.9883	81.3051	62.9883	80.5806	62.9883	81.4238	62.9883	80.6855	62.9883	81.524	62.9883	80.8013	62.9883	81.6024	62.9883	80.9263	62.9883	81.6568	62.9883	81.0574	62.9883	81.6858	62.9883	81.19	62.9883	81.6883	62.9883	81.3182	62.9883	81.6637	62.9883	81.4352	62.9883	81.6121	62.9883	81.5349
64.4531	80.4124	64.4531	80.3719	64.4531	80.4753	64.4531	80.3527	64.4531	80.5602	64.4531	80.3536	64.4531	80.666	64.4531	80.3724	64.4531	80.7901	64.4531	80.4074	64.4531	80.9287	64.4531	80.4565	64.4531	81.0766	64.4531	80.5183	64.4531	81.2279	64.4531	80.5915	64.4531	81.376	64.4531	80.6754	64.4531	81.5144	64.4531	80.7697	64.4531	81.6371	64.4531	80.8741	64.4531	81.7392	64.4531	80.988	64.4531	81.8169	64.4531	81.1104	64.4531	81.8683	64.4531	81.2386	64.4531	81.8921	64.4531	81.3688	64.4531	81.888	64.4531	81.4959	64.4531	81.8564	64.4531	81.6137	64.4531	81.7984	64.4531	81.7162
67.3828	80.6884	67.3828	80.6479	67.3828	80.7514	67.3828	80.6289	67.3828	80.8371	67.3828	80.6295	67.3828	80.9438	67.3828	80.6474	67.3828	81.069	67.3828	80.6801	67.3828	81.2083	67.3828	80.725	67.3828	81.356	67.3828	80.7801	67.3828	81.5057	67.3828	80.8438	67.3828	81.65	67.3828	80.9152	67.3828	81.7817	67.3828	80.9939	67.3828	81.8945	67.3828	81.0803	67.3828	81.983	67.3828	81.1745	67.3828	82.0437	67.3828	81.2767	67.3828	82.075	67.3828	81.3861	67.3828	82.0771	67.3828	81.5006	67.3828	82.0513	67.3828	81.6168	67.3828	82.0001	67.3828	81.7301	67.3828	81.9267	67.3828	81.8352
