"SPL Vertical"
"On-Axis"		"10°"		"-10°"		"20°"		"-20°"		"30°"		"-30°"		"40°"		"-40°"		"50°"		"-50°"		"60°"		"-60°"		"70°"		"-70°"		"80°"		"-80°"		"90°"		"-90°"		"100°"		"-100°"		"110°"		"-110°"		"120°"		"-120°"		"130°"		"-130°"		"140°"		"-140°"		"150°"		"-150°"		"160°"		"-160°"		"170°"		"-170°"		"180°"
"Frequency / Hz"	"Sound Pressure Level / dB (re 20 µPa/V)  [2.83V at 1m]"	"Frequency / Hz"	"Sound Pressure Level / dB (re 20 µPa/V)  [2.83V at 1m]"	"Frequency / Hz"	"Sound Pressure Level / dB (re 20 µPa/V)  [2.83V at 1m]"	"Frequency / Hz"	"Sound Pressure Level / dB (re 20 µPa/V)  [2.83V at 1m]"	"Frequency / Hz"	"Sound Pressure Level / dB (re 20 µPa/V)  [2.83V at 1m]"	"Frequency / Hz"	"Sound Pressure Level / dB (re 20 µPa/V)  [2.83V at 1m]"	"Frequency / Hz"	"Sound Pressure Level / dB (re 20 µPa/V)  [2.83V at 1m]"	"Frequency / Hz"	"Sound Pressure Level / dB (re 20 µPa/V)  [2.83V at 1m]"	"Frequency / Hz"	"Sound Pressure Level / dB (re 20 µPa/V)  [2.83V at 1m]"	"Frequency / Hz"	"Sound Pressure Level / dB (re 20 µPa/V)  [2.83V at 1m]"	"Frequency / Hz"	"Sound Pressure Level / dB (re 20 µPa/V)  [2.83V at 1m]"	"Frequency / Hz"	"Sound Pressure Level / dB (re 20 µPa/V)  [2.83V at 1m]"	"Frequency / Hz"	"Sound Pressure Level / dB (re 20 µPa/V)  [2.83V at 1m]"	"Frequency / Hz"	"Sound Pressure Level / dB (re 20 µPa/V)  [2.83V at 1m]"	"Frequency / Hz"	"Sound Pressure Level / dB (re 20 µPa/V)  [2.83V at 1m]"	"Frequency / Hz"	"Sound Pressure Level / dB (re 20 µPa/V)  [2.83V at 1m]"	"Frequency / Hz"	"Sound Pressure Level / dB (re 20 µPa/V)  [2.83V at 1m]"	"Frequency / Hz"	"Sound Pressure Level / dB (re 20 µPa/V)  [2.83V at 1m]"	"Frequency / Hz"	"Sound Pressure Level / dB (re 20 µPa/V)  [2.83V at 1m]"	"Frequency / Hz"	"Sound Pressure Level / dB (re 20 µPa/V)  [2.83V at 1m]"	"Frequency / Hz"	"Sound Pressure Level / dB (re 20 µPa/V)  [2.83V at 1m]"	"Frequency / Hz"	"Sound Pressure Level / dB (re 20 µPa/V)  [2.83V at 1m]"	"Frequency / Hz"	"Sound Pressure Level / dB (re 20 µPa/V)  [2.83V at 1m]"	"Frequency / Hz"	"Sound Pressure Level / dB (re 20 µPa/V)  [2.83V at 1m]"	"Frequency / Hz"	"Sound Pressure Level / dB (re 20 µPa/V)  [2.83V at 1m]"	"Frequency / Hz"	"Sound Pressure Level / dB (re 20 µPa/V)  [2.83V at 1m]"	"Frequency / Hz"	"Sound Pressure Level / dB (re 20 µPa/V)  [2.83V at 1m]"	"Frequency / Hz"	"Sound Pressure Level / dB (re 20 µPa/V)  [2.83V at 1m]"	"Frequency / Hz"	"Sound Pressure Level / dB (re 20 µPa/V)  [2.83V at 1m]"	"Frequency / Hz"	"Sound Pressure Level / dB (re 20 µPa/V)  [2.83V at 1m]"	"Frequency / Hz"	"Sound Pressure Level / dB (re 20 µPa/V)  [2.83V at 1m]"	"Frequency / Hz"	"Sound Pressure Level / dB (re 20 µPa/V)  [2.83V at 1m]"	"Frequency / Hz"	"Sound Pressure Level / dB (re 20 µPa/V)  [2.83V at 1m]"	"Frequency / Hz"	"Sound Pressure Level / dB (re 20 µPa/V)  [2.83V at 1m]"	"Frequency / Hz"	"Sound Pressure Level / dB (re 20 µPa/V)  [2.83V at 1m]"	"Frequency / Hz"	"Sound Pressure Level / dB (re 20 µPa/V)  [2.83V at 1m]"
20.5078	52.4119	20.5078	52.775	20.5078	52.152	20.5078	53.1671	20.5078	52.0786	20.5078	53.54	20.5078	52.2386	20.5078	53.8686	20.5078	52.5993	20.5078	54.1427	20.5078	53.057	20.5078	54.36	20.5078	53.5012	20.5078	54.5221	20.5078	53.8709	20.5078	54.6317	20.5078	54.1579	20.5078	54.692	20.5078	54.3664	20.5078	54.7057	20.5078	54.4878	20.5078	54.6758	20.5078	54.516	20.5078	54.6056	20.5078	54.4613	20.5078	54.4999	20.5078	54.3427	20.5078	54.3656	20.5078	54.1838	20.5078	54.2137	20.5078	54.0186	20.5078	54.0605	20.5078	53.8879	20.5078	53.928	20.5078	53.8251	20.5078	53.8418
21.9727	52.6677	21.9727	53.3384	21.9727	51.8465	21.9727	53.8725	21.9727	50.8716	21.9727	54.2873	21.9727	49.7644	21.9727	54.5988	21.9727	48.5869	21.9727	54.8212	21.9727	47.444	21.9727	54.9656	21.9727	46.4436	21.9727	55.0405	21.9727	45.6382	21.9727	55.052	21.9727	45.0404	21.9727	55.0037	21.9727	44.6957	21.9727	54.8973	21.9727	44.6774	21.9727	54.7323	21.9727	45.0262	21.9727	54.5064	21.9727	45.7189	21.9727	54.2153	21.9727	46.6572	21.9727	53.8529	21.9727	47.7087	21.9727	53.4117	21.9727	48.7689	21.9727	52.8831	21.9727	49.7775	21.9727	52.2589	21.9727	50.704	21.9727	51.533
23.4375	50.9086	23.4375	52.0976	23.4375	49.3401	23.4375	52.997	23.4375	47.2841	23.4375	53.6726	23.4375	44.7024	23.4375	54.1711	23.4375	42.107	23.4375	54.5258	23.4375	41.2782	23.4375	54.7604	23.4375	42.4844	23.4375	54.8915	23.4375	43.7884	23.4375	54.9305	23.4375	44.4283	23.4375	54.8841	23.4375	44.4248	23.4375	54.7559	23.4375	43.9929	23.4375	54.5461	23.4375	43.4638	23.4375	54.2517	23.4375	43.2891	23.4375	53.8673	23.4375	43.8082	23.4375	53.3845	23.4375	44.9353	23.4375	52.7921	23.4375	46.3353	23.4375	52.0769	23.4375	47.751	23.4375	51.2244	23.4375	49.061	23.4375	50.2215
24.9023	53.2578	24.9023	54.2793	24.9023	51.9489	24.9023	55.0646	24.9023	50.3117	24.9023	55.6583	24.9023	48.3781	24.9023	56.0957	24.9023	46.4283	24.9023	56.4035	24.9023	45.1695	24.9023	56.6017	24.9023	45.0934	24.9023	56.7045	24.9023	45.6391	24.9023	56.7216	24.9023	46.0905	24.9023	56.659	24.9023	46.1988	24.9023	56.5193	24.9023	46.0091	24.9023	56.3025	24.9023	45.7217	24.9023	56.0055	24.9023	45.6563	24.9023	55.6227	24.9023	46.1051	24.9023	55.1458	24.9023	47.0837	24.9023	54.5641	24.9023	48.3574	24.9023	53.8648	24.9023	49.6882	24.9023	53.0344	24.9023	50.9413	24.9023	52.0614
26.3672	51.9433	26.3672	53.3032	26.3672	50.325	26.3672	54.3863	26.3672	48.6764	26.3672	55.2283	26.3672	47.6799	26.3672	55.8707	26.3672	48.0301	26.3672	56.3486	26.3672	49.2973	26.3672	56.6893	26.3672	50.6162	26.3672	56.913	26.3672	51.5753	26.3672	57.0342	26.3672	52.0805	26.3672	57.0628	26.3672	52.1527	26.3672	57.0047	26.3672	51.8608	26.3672	56.8625	26.3672	51.3221	26.3672	56.6361	26.3672	50.727	26.3672	56.3232	26.3672	50.333	26.3672	55.9195	26.3672	50.3559	26.3672	55.4199	26.3672	50.8216	26.3672	54.8195	26.3672	51.5804	26.3672	54.1172	26.3672	52.4536	26.3672	53.3199
27.832	52.781	27.832	53.8867	27.832	51.6979	27.832	54.8626	27.832	50.9718	27.832	55.6679	27.832	50.9808	27.832	56.3059	27.832	51.7163	27.832	56.7933	27.832	52.7544	27.832	57.1483	27.832	53.6889	27.832	57.3867	27.832	54.3088	27.832	57.5211	27.832	54.5426	27.832	57.5604	27.832	54.395	27.832	57.5105	27.832	53.9119	27.832	57.3747	27.832	53.1716	27.832	57.1536	27.832	52.3081	27.832	56.8455	27.832	51.5536	27.832	56.4468	27.832	51.2068	27.832	55.9521	27.832	51.4298	27.832	55.3554	27.832	52.0998	27.832	54.6521	27.832	52.9667	27.832	53.8463
29.2969	56.7045	29.2969	57.3302	29.2969	56.146	29.2969	57.9248	29.2969	55.8032	29.2969	58.4397	29.2969	55.8127	29.2969	58.8568	29.2969	56.1825	29.2969	59.1732	29.2969	56.7541	29.2969	59.3923	29.2969	57.3008	29.2969	59.5195	29.2969	57.6374	29.2969	59.5593	29.2969	57.6558	29.2969	59.515	29.2969	57.3146	29.2969	59.3878	29.2969	56.6189	29.2969	59.1763	29.2969	55.6098	29.2969	58.8767	29.2969	54.3771	29.2969	58.4819	29.2969	53.1103	29.2969	57.9818	29.2969	52.1627	29.2969	57.3627	29.2969	51.9415	29.2969	56.6095	29.2969	52.5156	29.2969	55.7099	29.2969	53.5435	29.2969	54.6686
30.7617	60.1865	30.7617	60.4854	30.7617	59.9513	30.7617	60.7876	30.7617	59.8576	30.7617	61.0559	30.7617	59.9714	30.7617	61.2703	30.7617	60.3011	30.7617	61.4216	30.7617	60.7725	30.7617	61.5061	30.7617	61.2566	30.7617	61.523	30.7617	61.6224	30.7617	61.4719	30.7617	61.7762	30.7617	61.3523	30.7617	61.6748	30.7617	61.1632	30.7617	61.3196	30.7617	60.9022	30.7617	60.7405	30.7617	60.5668	30.7617	59.9838	30.7617	60.154	30.7617	59.1137	30.7617	59.6629	30.7617	58.2287	30.7617	59.0986	30.7617	57.4771	30.7617	58.4796	30.7617	57.0297	30.7617	57.8525	30.7617	56.9875	30.7617	57.3085
32.2266	60.3864	32.2266	60.7816	32.2266	60.1056	32.2266	61.1937	32.2266	60.0605	32.2266	61.5644	32.2266	60.3351	32.2266	61.866	32.2266	60.9067	32.2266	62.0885	32.2266	61.6475	32.2266	62.2306	32.2266	62.3961	32.2266	62.2948	32.2266	63.0196	32.2266	62.2845	32.2266	63.4343	32.2266	62.2029	32.2266	63.6012	32.2266	62.053	32.2266	63.5166	32.2266	61.8373	32.2266	63.2013	32.2266	61.5597	32.2266	62.6946	32.2266	61.2266	32.2266	62.0503	32.2266	60.8504	32.2266	61.3392	32.2266	60.454	32.2266	60.6508	32.2266	60.0775	32.2266	60.0873	32.2266	59.7822	32.2266	59.7388	32.2266	59.6458
33.6914	64.0825	33.6914	64.0992	33.6914	64.1932	33.6914	64.1957	33.6914	64.4653	33.6914	64.3277	33.6914	64.9003	33.6914	64.4618	33.6914	65.4585	33.6914	64.5763	33.6914	66.0699	33.6914	64.6588	33.6914	66.6545	33.6914	64.7034	33.6914	67.14	33.6914	64.7085	33.6914	67.4721	33.6914	64.6754	33.6914	67.619	33.6914	64.6077	33.6914	67.5734	33.6914	64.5111	33.6914	67.3502	33.6914	64.3943	33.6914	66.9803	33.6914	64.2693	33.6914	66.5058	33.6914	64.1527	33.6914	65.9751	33.6914	64.0664	33.6914	65.4395	33.6914	64.0371	33.6914	64.9493	33.6914	64.0933	33.6914	64.5469	33.6914	64.2592
35.1562	68.8762	35.1562	68.5557	35.1562	69.2818	35.1562	68.3224	35.1562	69.7563	35.1562	68.1672	35.1562	70.2696	35.1562	68.0746	35.1562	70.7811	35.1562	68.0273	35.1562	71.2449	35.1562	68.0096	35.1562	71.6155	35.1562	68.009	35.1562	71.8548	35.1562	68.0169	35.1562	71.9391	35.1562	68.0281	35.1562	71.864	35.1562	68.0408	35.1562	71.646	35.1562	68.0555	35.1562	71.3172	35.1562	68.0755	35.1562	70.9165	35.1562	68.1057	35.1562	70.4819	35.1562	68.1529	35.1562	70.046	35.1562	68.2255	35.1562	69.6339	35.1562	68.3327	35.1562	69.2636	35.1562	68.4836	35.1562	68.9462	35.1562	68.6864
36.6211	72.655	36.6211	72.4117	36.6211	72.9429	36.6211	72.2103	36.6211	73.2715	36.6211	72.0444	36.6211	73.6285	36.6211	71.9065	36.6211	73.9918	36.6211	71.7888	36.6211	74.3306	36.6211	71.685	36.6211	74.6081	36.6211	71.5903	36.6211	74.7867	36.6211	71.5016	36.6211	74.8351	36.6211	71.4173	36.6211	74.7362	36.6211	71.3374	36.6211	74.4937	36.6211	71.2638	36.6211	74.1325	36.6211	71.1996	36.6211	73.6919	36.6211	71.1498	36.6211	73.2159	36.6211	71.1212	36.6211	72.7454	36.6211	71.1225	36.6211	72.3125	36.6211	71.164	36.6211	71.9396	36.6211	71.257	36.6211	71.6384	36.6211	71.4122
38.0859	75.8359	38.0859	75.587	38.0859	76.1134	38.0859	75.3688	38.0859	76.4137	38.0859	75.1806	38.0859	76.7257	38.0859	75.0204	38.0859	77.0323	38.0859	74.8852	38.0859	77.3096	38.0859	74.7719	38.0859	77.5294	38.0859	74.6779	38.0859	77.664	38.0859	74.6011	38.0859	77.6934	38.0859	74.5404	38.0859	77.6119	38.0859	74.4952	38.0859	77.4289	38.0859	74.4662	38.0859	77.1642	38.0859	74.455	38.0859	76.8417	38.0859	74.4639	38.0859	76.4862	38.0859	74.4965	38.0859	76.1225	38.0859	74.557	38.0859	75.7734	38.0859	74.6506	38.0859	75.4569	38.0859	74.783	38.0859	75.184	38.0859	74.9596
39.5508	77.4317	39.5508	77.2057	39.5508	77.6772	39.5508	77.0016	39.5508	77.9367	39.5508	76.8197	39.5508	78.2006	39.5508	76.6592	39.5508	78.4542	39.5508	76.5188	39.5508	78.6782	39.5508	76.3972	39.5508	78.8495	39.5508	76.2932	39.5508	78.944	39.5508	76.2059	39.5508	78.9423	39.5508	76.135	39.5508	78.8362	39.5508	76.0804	39.5508	78.6344	39.5508	76.0426	39.5508	78.3604	39.5508	76.0226	39.5508	78.0448	39.5508	76.0221	39.5508	77.7156	39.5508	76.0434	39.5508	77.3945	39.5508	76.0899	39.5508	77.0964	39.5508	76.1652	39.5508	76.8313	39.5508	76.2737	39.5508	76.6049	39.5508	76.4193
41.0156	79.4772	41.0156	79.2398	41.0156	79.7293	41.0156	79.0206	41.0156	79.99	41.0156	78.8212	41.0156	80.25	41.0156	78.6422	41.0156	80.496	41.0156	78.4836	41.0156	80.7109	41.0156	78.345	41.0156	80.8742	41.0156	78.2261	41.0156	80.9645	41.0156	78.1267	41.0156	80.9639	41.0156	78.0468	41.0156	80.8636	41.0156	77.9868	41.0156	80.6693	41.0156	77.9476	41.0156	80.4008	41.0156	77.9303	41.0156	80.0867	41.0156	77.9368	41.0156	79.7555	41.0156	77.9691	41.0156	79.4299	41.0156	78.0299	41.0156	79.1254	41.0156	78.1222	41.0156	78.8513	41.0156	78.2486	41.0156	78.6126	41.0156	78.4117
42.4805	80.7327	42.4805	80.5072	42.4805	80.9643	42.4805	80.2921	42.4805	81.1966	42.4805	80.0906	42.4805	81.4223	42.4805	79.905	42.4805	81.6319	42.4805	79.7372	42.4805	81.8127	42.4805	79.5887	42.4805	81.9492	42.4805	79.4605	42.4805	82.024	42.4805	79.3536	42.4805	82.0211	42.4805	79.2687	42.4805	81.9322	42.4805	79.2067	42.4805	81.7608	42.4805	79.1685	42.4805	81.5232	42.4805	79.1549	42.4805	81.2425	42.4805	79.1673	42.4805	80.9425	42.4805	79.2068	42.4805	80.6428	42.4805	79.2751	42.4805	80.3577	42.4805	79.3739	42.4805	80.097	42.4805	79.5046	42.4805	79.8663	42.4805	79.6685
43.9453	81.8333	43.9453	81.6069	43.9453	82.065	43.9453	81.3902	43.9453	82.2959	43.9453	81.1867	43.9453	82.5177	43.9453	80.9988	43.9453	82.7195	43.9453	80.8286	43.9453	82.888	43.9453	80.6776	43.9453	83.0081	43.9453	80.5474	43.9453	83.0647	43.9453	80.439	43.9453	83.0456	43.9453	80.3535	43.9453	82.9463	43.9453	80.2919	43.9453	82.7724	43.9453	80.255	43.9453	82.5399	43.9453	80.2436	43.9453	82.27	43.9453	80.2588	43.9453	81.984	43.9453	80.3015	43.9453	81.6993	43.9453	80.3726	43.9453	81.4284	43.9453	80.4731	43.9453	81.1795	43.9453	80.6039	43.9453	80.9577	43.9453	80.7655
45.4102	82.3393	45.4102	82.1234	45.4102	82.5572	45.4102	81.9139	45.4102	82.771	45.4102	81.7146	45.4102	82.9733	45.4102	81.5284	45.4102	83.1546	45.4102	81.358	45.4102	83.3033	45.4102	81.2054	45.4102	83.4065	45.4102	81.0724	45.4102	83.4511	45.4102	80.9607	45.4102	83.4268	45.4102	80.8717	45.4102	83.3297	45.4102	80.8065	45.4102	83.1651	45.4102	80.7664	45.4102	82.9471	45.4102	80.7523	45.4102	82.6945	45.4102	80.7651	45.4102	82.4261	45.4102	80.8058	45.4102	82.1573	45.4102	80.875	45.4102	81.8997	45.4102	80.9735	45.4102	81.661	45.4102	81.1017	45.4102	81.4466	45.4102	81.2596
46.875	82.5443	46.875	82.3298	46.875	82.7608	46.875	82.1222	46.875	82.9735	46.875	81.9254	46.875	83.1749	46.875	81.7427	46.875	83.3559	46.875	81.5769	46.875	83.506	46.875	81.4302	46.875	83.6134	46.875	81.3048	46.875	83.6669	46.875	81.2022	46.875	83.6573	46.875	81.124	46.875	83.5807	46.875	81.0711	46.875	83.441	46.875	81.0444	46.875	83.2493	46.875	81.0448	46.875	83.0216	46.875	81.0726	46.875	82.7741	46.875	81.1283	46.875	82.521	46.875	81.2121	46.875	82.2731	46.875	81.3241	46.875	82.0386	46.875	81.4639	46.875	81.8232	46.875	81.6307
48.3398	82.6301	48.3398	82.4305	48.3398	82.8329	48.3398	82.2392	48.3398	83.0331	48.3398	82.0602	48.3398	83.2236	48.3398	81.8971	48.3398	83.3962	48.3398	81.7527	48.3398	83.5417	48.3398	81.6296	48.3398	83.6501	48.3398	81.5296	48.3398	83.7121	48.3398	81.4542	48.3398	83.7211	48.3398	81.4046	48.3398	83.6745	48.3398	81.3813	48.3398	83.5758	48.3398	81.3846	48.3398	83.4337	48.3398	81.4142	48.3398	83.26	48.3398	81.4697	48.3398	83.0668	48.3398	81.5502	48.3398	82.8644	48.3398	81.6543	48.3398	82.6606	48.3398	81.7805	48.3398	82.4611	48.3398	81.9268	48.3398	82.27	48.3398	82.0908
51.2695	83.0225	51.2695	82.8237	51.2695	83.2142	51.2695	82.6245	51.2695	83.3912	51.2695	82.4307	51.2695	83.5455	51.2695	82.2476	51.2695	83.6684	51.2695	82.0799	51.2695	83.7513	51.2695	81.9317	51.2695	83.7871	51.2695	81.8064	51.2695	83.7723	51.2695	81.7065	51.2695	83.7089	51.2695	81.6342	51.2695	83.6047	51.2695	81.5905	51.2695	83.4714	51.2695	81.576	51.2695	83.3205	51.2695	81.5903	51.2695	83.1607	51.2695	81.6322	51.2695	82.9963	51.2695	81.6999	51.2695	82.8294	51.2695	81.7912	51.2695	82.6614	51.2695	81.9032	51.2695	82.4947	51.2695	82.0329	51.2695	82.332	51.2695	82.177
52.7344	83.604	52.7344	83.3969	52.7344	83.7992	52.7344	83.1847	52.7344	83.9751	52.7344	82.9735	52.7344	84.1229	52.7344	82.7685	52.7344	84.2337	52.7344	82.5744	52.7344	84.2979	52.7344	82.3951	52.7344	84.3072	52.7344	82.234	52.7344	84.2555	52.7344	82.0938	52.7344	84.142	52.7344	81.9766	52.7344	83.9723	52.7344	81.884	52.7344	83.7587	52.7344	81.8172	52.7344	83.5176	52.7344	81.7765	52.7344	83.266	52.7344	81.7623	52.7344	83.0181	52.7344	81.7744	52.7344	82.7844	52.7344	81.8124	52.7344	82.5713	52.7344	81.8759	52.7344	82.382	52.7344	81.9647	52.7344	82.2177	52.7344	82.0786
54.1992	83.6397	54.1992	83.4333	54.1992	83.8372	54.1992	83.2246	54.1992	84.0189	54.1992	83.0192	54.1992	84.1772	54.1992	82.8225	54.1992	84.3042	54.1992	82.639	54.1992	84.3918	54.1992	82.4726	54.1992	84.4328	54.1992	82.3266	54.1992	84.4216	54.1992	82.2036	54.1992	84.3557	54.1992	82.1055	54.1992	84.2371	54.1992	82.0336	54.1992	84.0724	54.1992	81.9887	54.1992	83.8721	54.1992	81.971	54.1992	83.6494	54.1992	81.9804	54.1992	83.4174	54.1992	82.0167	54.1992	83.1872	54.1992	82.0792	54.1992	82.9674	54.1992	82.1675	54.1992	82.7639	54.1992	82.2809	54.1992	82.5803	54.1992	82.4188
55.6641	83.7779	55.6641	83.5763	55.6641	83.9697	55.6641	83.3713	55.6641	84.1448	55.6641	83.1688	55.6641	84.2961	55.6641	82.9741	55.6641	84.416	55.6641	82.7922	55.6641	84.4974	55.6641	82.6273	55.6641	84.5341	55.6641	82.483	55.6641	84.522	55.6641	82.3624	55.6641	84.4603	55.6641	82.2678	55.6641	84.3524	55.6641	82.2008	55.6641	84.2053	55.6641	82.1624	55.6641	84.0284	55.6641	82.153	55.6641	83.8315	55.6641	82.1723	55.6641	83.6241	55.6641	82.2197	55.6641	83.4141	55.6641	82.294	55.6641	83.2084	55.6641	82.394	55.6641	83.0121	55.6641	82.5179	55.6641	82.8295	55.6641	82.6638
58.5938	83.9414	58.5938	83.7597	58.5938	84.1125	58.5938	83.573	58.5938	84.2671	58.5938	83.3868	58.5938	84.3993	58.5938	83.2061	58.5938	84.5035	58.5938	83.0357	58.5938	84.5745	58.5938	82.8797	58.5938	84.6074	58.5938	82.7416	58.5938	84.5985	58.5938	82.6245	58.5938	84.5458	58.5938	82.5305	58.5938	84.4495	58.5938	82.4616	58.5938	84.3141	58.5938	82.4187	58.5938	84.1471	58.5938	82.4025	58.5938	83.9585	58.5938	82.4131	58.5938	83.7586	58.5938	82.4502	58.5938	83.5565	58.5938	82.5132	58.5938	83.3594	58.5938	82.6012	58.5938	83.1729	58.5938	82.7129	58.5938	83.0009	58.5938	82.8468
60.0586	84.0584	60.0586	83.8963	60.0586	84.2099	60.0586	83.7293	60.0586	84.3454	60.0586	83.5627	60.0586	84.4589	60.0586	83.4015	60.0586	84.5455	60.0586	83.2503	60.0586	84.6003	60.0586	83.1132	60.0586	84.6202	60.0586	82.9936	60.0586	84.6031	60.0586	82.8944	60.0586	84.5488	60.0586	82.8177	60.0586	84.4597	60.0586	82.7648	60.0586	84.3407	60.0586	82.7365	60.0586	84.1997	60.0586	82.7327	60.0586	84.0456	60.0586	82.7528	60.0586	83.8864	60.0586	82.7956	60.0586	83.728	60.0586	82.8597	60.0586	83.5739	60.0586	82.9431	60.0586	83.4264	60.0586	83.0437	60.0586	83.2875	60.0586	83.1592
62.9883	84.5145	62.9883	84.3439	62.9883	84.6726	62.9883	84.1673	62.9883	84.8116	62.9883	83.9907	62.9883	84.9251	62.9883	83.8199	62.9883	85.0068	62.9883	83.6599	62.9883	85.0516	62.9883	83.5153	62.9883	85.0557	62.9883	83.3897	62.9883	85.0176	62.9883	83.2862	62.9883	84.9388	62.9883	83.2068	62.9883	84.8247	62.9883	83.1528	62.9883	84.6844	62.9883	83.1247	62.9883	84.5296	62.9883	83.1219	62.9883	84.371	62.9883	83.1434	62.9883	84.2156	62.9883	83.1875	62.9883	84.0667	62.9883	83.2519	62.9883	83.9246	62.9883	83.334	62.9883	83.7893	62.9883	83.4313	62.9883	83.661	62.9883	83.5411
64.4531	84.6479	64.4531	84.4741	64.4531	84.8087	64.4531	84.2936	64.4531	84.9497	64.4531	84.1126	64.4531	85.0647	64.4531	83.9369	64.4531	85.1479	64.4531	83.7718	64.4531	85.1941	64.4531	83.6219	64.4531	85.1998	64.4531	83.4912	64.4531	85.1634	64.4531	83.3827	64.4531	85.0862	64.4531	83.2988	64.4531	84.9734	64.4531	83.2409	64.4531	84.8334	64.4531	83.2096	64.4531	84.6769	64.4531	83.2046	64.4531	84.5139	64.4531	83.225	64.4531	84.3516	64.4531	83.269	64.4531	84.1938	64.4531	83.3346	64.4531	84.0423	64.4531	83.4193	64.4531	83.898	64.4531	83.5204	64.4531	83.7619	64.4531	83.6354
67.3828	84.8413	67.3828	84.6689	67.3828	85.0002	67.3828	84.4893	67.3828	85.139	67.3828	84.3088	67.3828	85.2518	67.3828	84.1333	67.3828	85.3329	67.3828	83.968	67.3828	85.3779	67.3828	83.8175	67.3828	85.3842	67.3828	83.6858	67.3828	85.3512	67.3828	83.5759	67.3828	85.2811	67.3828	83.4903	67.3828	85.1788	67.3828	83.4304	67.3828	85.0515	67.3828	83.3969	67.3828	84.9068	67.3828	83.3898	67.3828	84.7514	67.3828	83.4084	67.3828	84.5905	67.3828	83.4515	67.3828	84.428	67.3828	83.5175	67.3828	84.2677	67.3828	83.6042	67.3828	84.1128	67.3828	83.7095	67.3828	83.9663	67.3828	83.831
