"SPL Vertical"																																																																							
"On-Axis"		"10°"		"-10°"		"20°"		"-20°"		"30°"		"-30°"		"40°"		"-40°"		"50°"		"-50°"		"60°"		"-60°"		"70°"		"-70°"		"80°"		"-80°"		"90°"		"-90°"		"100°"		"-100°"		"110°"		"-110°"		"120°"		"-120°"		"130°"		"-130°"		"140°"		"-140°"		"150°"		"-150°"		"160°"		"-160°"		"170°"		"-170°"		"180°"	
"Frequency [Hz]"	"Sound Pessure Level [dB]  / [2.83V 1m] "	"Frequency [Hz]"	"Sound Pessure Level [dB]  / [2.83V 1m] "	"Frequency [Hz]"	"Sound Pessure Level [dB]  / [2.83V 1m] "	"Frequency [Hz]"	"Sound Pessure Level [dB]  / [2.83V 1m] "	"Frequency [Hz]"	"Sound Pessure Level [dB]  / [2.83V 1m] "	"Frequency [Hz]"	"Sound Pessure Level [dB]  / [2.83V 1m] "	"Frequency [Hz]"	"Sound Pessure Level [dB]  / [2.83V 1m] "	"Frequency [Hz]"	"Sound Pessure Level [dB]  / [2.83V 1m] "	"Frequency [Hz]"	"Sound Pessure Level [dB]  / [2.83V 1m] "	"Frequency [Hz]"	"Sound Pessure Level [dB]  / [2.83V 1m] "	"Frequency [Hz]"	"Sound Pessure Level [dB]  / [2.83V 1m] "	"Frequency [Hz]"	"Sound Pessure Level [dB]  / [2.83V 1m] "	"Frequency [Hz]"	"Sound Pessure Level [dB]  / [2.83V 1m] "	"Frequency [Hz]"	"Sound Pessure Level [dB]  / [2.83V 1m] "	"Frequency [Hz]"	"Sound Pessure Level [dB]  / [2.83V 1m] "	"Frequency [Hz]"	"Sound Pessure Level [dB]  / [2.83V 1m] "	"Frequency [Hz]"	"Sound Pessure Level [dB]  / [2.83V 1m] "	"Frequency [Hz]"	"Sound Pessure Level [dB]  / [2.83V 1m] "	"Frequency [Hz]"	"Sound Pessure Level [dB]  / [2.83V 1m] "	"Frequency [Hz]"	"Sound Pessure Level [dB]  / [2.83V 1m] "	"Frequency [Hz]"	"Sound Pessure Level [dB]  / [2.83V 1m] "	"Frequency [Hz]"	"Sound Pessure Level [dB]  / [2.83V 1m] "	"Frequency [Hz]"	"Sound Pessure Level [dB]  / [2.83V 1m] "	"Frequency [Hz]"	"Sound Pessure Level [dB]  / [2.83V 1m] "	"Frequency [Hz]"	"Sound Pessure Level [dB]  / [2.83V 1m] "	"Frequency [Hz]"	"Sound Pessure Level [dB]  / [2.83V 1m] "	"Frequency [Hz]"	"Sound Pessure Level [dB]  / [2.83V 1m] "	"Frequency [Hz]"	"Sound Pessure Level [dB]  / [2.83V 1m] "	"Frequency [Hz]"	"Sound Pessure Level [dB]  / [2.83V 1m] "	"Frequency [Hz]"	"Sound Pessure Level [dB]  / [2.83V 1m] "	"Frequency [Hz]"	"Sound Pessure Level [dB]  / [2.83V 1m] "	"Frequency [Hz]"	"Sound Pessure Level [dB]  / [2.83V 1m] "	"Frequency [Hz]"	"Sound Pessure Level [dB]  / [2.83V 1m] "	"Frequency [Hz]"	"Sound Pessure Level [dB]  / [2.83V 1m] "	"Frequency [Hz]"	"Sound Pessure Level [dB]  / [2.83V 1m] "	"Frequency [Hz]"	"Sound Pessure Level [dB]  / [2.83V 1m] "
20.5078	55.7961	20.5078	55.9287	20.5078	55.6644	20.5078	56.0601	20.5078	55.5361	20.5078	56.1888	20.5078	55.4149	20.5078	56.3135	20.5078	55.3051	20.5078	56.4332	20.5078	55.212	20.5078	56.5465	20.5078	55.1415	20.5078	56.6519	20.5078	55.0996	20.5078	56.7476	20.5078	55.0918	20.5078	56.8314	20.5078	55.1222	20.5078	56.9006	20.5078	55.1925	20.5078	56.9521	20.5078	55.302	20.5078	56.9825	20.5078	55.4465	20.5078	56.9884	20.5078	55.6193	20.5078	56.9666	20.5078	55.8115	20.5078	56.9147	20.5078	56.0128	20.5078	56.8313	20.5078	56.2128	20.5078	56.7163	20.5078	56.4019	20.5078	56.5718
21.2402	51.9241	21.2402	52.1192	21.2402	51.7191	21.2402	52.302	21.2402	51.5075	21.2402	52.4712	21.2402	51.2942	21.2402	52.6257	21.2402	51.0858	21.2402	52.7646	21.2402	50.8909	21.2402	52.887	21.2402	50.7196	21.2402	52.9916	21.2402	50.5834	21.2402	53.0768	21.2402	50.4935	21.2402	53.1406	21.2402	50.4599	21.2402	53.1805	21.2402	50.4893	21.2402	53.1935	21.2402	50.584	21.2402	53.1766	21.2402	50.7409	21.2402	53.1265	21.2402	50.9516	21.2402	53.0403	21.2402	51.2035	21.2402	52.9159	21.2402	51.4812	21.2402	52.7523	21.2402	51.7686	21.2402	52.5507	21.2402	52.0507	21.2402	52.3147
21.9727	53.8309	21.9727	54.0383	21.9727	53.6058	21.9727	54.2259	21.9727	53.3665	21.9727	54.3924	21.9727	53.1182	21.9727	54.537	21.9727	52.868	21.9727	54.6593	21.9727	52.6251	21.9727	54.7587	21.9727	52.4008	21.9727	54.8347	21.9727	52.2075	21.9727	54.8863	21.9727	52.0579	21.9727	54.9122	21.9727	51.9636	21.9727	54.9104	21.9727	51.9338	21.9727	54.8789	21.9727	51.9738	21.9727	54.8149	21.9727	52.084	21.9727	54.7159	21.9727	52.2598	21.9727	54.5797	21.9727	52.4911	21.9727	54.405	21.9727	52.7639	21.9727	54.1921	21.9727	53.0617	21.9727	53.9438	21.9727	53.3676	21.9727	53.6658
22.7051	55.083	22.7051	55.1792	22.7051	54.9714	22.7051	55.2602	22.7051	54.8447	22.7051	55.3265	22.7051	54.7047	22.7051	55.3788	22.7051	54.5539	22.7051	55.4178	22.7051	54.3969	22.7051	55.4439	22.7051	54.2395	22.7051	55.4572	22.7051	54.0895	22.7051	55.4576	22.7051	53.9557	22.7051	55.4443	22.7051	53.8472	22.7051	55.4163	22.7051	53.7729	22.7051	55.3723	22.7051	53.7397	22.7051	55.3106	22.7051	53.7513	22.7051	55.23	22.7051	53.8081	22.7051	55.1292	22.7051	53.9062	22.7051	55.008	22.7051	54.0384	22.7051	54.8674	22.7051	54.1952	22.7051	54.71	22.7051	54.366	22.7051	54.5406
23.4375	41.6382	23.4375	42.203	23.4375	41.1609	23.4375	42.7614	23.4375	40.8994	23.4375	43.2593	23.4375	40.9675	23.4375	43.6702	23.4375	41.3884	23.4375	43.9832	23.4375	42.07	23.4375	44.1948	23.4375	42.8653	23.4375	44.3039	23.4375	43.6426	23.4375	44.3096	23.4375	44.312	23.4375	44.2106	23.4375	44.82	23.4375	44.0045	23.4375	45.1366	23.4375	43.6896	23.4375	45.2458	23.4375	43.2681	23.4375	45.1403	23.4375	42.7528	23.4375	44.8209	23.4375	42.1797	23.4375	44.2993	23.4375	41.6252	23.4375	43.6065	23.4375	41.2182	23.4375	42.8066	23.4375	41.1124	23.4375	42.0147	23.4375	41.3963
24.1699	43.5598	24.1699	44.2694	24.1699	42.7523	24.1699	44.8588	24.1699	41.9079	24.1699	45.3246	24.1699	41.1509	24.1699	45.6715	24.1699	40.6672	24.1699	45.9064	24.1699	40.6189	24.1699	46.0361	24.1699	41.0087	24.1699	46.066	24.1699	41.668	24.1699	45.9994	24.1699	42.3877	24.1699	45.8379	24.1699	43.0163	24.1699	45.5813	24.1699	43.4701	24.1699	45.2284	24.1699	43.7114	24.1699	44.7788	24.1699	43.7297	24.1699	44.2365	24.1699	43.5346	24.1699	43.6166	24.1699	43.1572	24.1699	42.9566	24.1699	42.6592	24.1699	42.3301	24.1699	42.1451	24.1699	41.8507	24.1699	41.7588	24.1699	41.641
25.6348	51.0286	25.6348	50.8661	25.6348	51.2904	25.6348	50.7898	25.6348	51.6519	25.6348	50.7793	25.6348	52.0987	25.6348	50.8125	25.6348	52.6041	25.6348	50.8702	25.6348	53.1341	25.6348	50.9379	25.6348	53.6539	25.6348	51.0068	25.6348	54.1317	25.6348	51.0731	25.6348	54.5412	25.6348	51.1382	25.6348	54.8619	25.6348	51.2075	25.6348	55.0796	25.6348	51.2908	25.6348	55.1856	25.6348	51.401	25.6348	55.1763	25.6348	51.5528	25.6348	55.0539	25.6348	51.7606	25.6348	54.826	25.6348	52.0345	25.6348	54.5063	25.6348	52.3766	25.6348	54.1146	25.6348	52.7785	25.6348	53.6762	25.6348	53.2207
26.3672	53.8528	26.3672	53.667	26.3672	54.1045	26.3672	53.5414	26.3672	54.4209	26.3672	53.4657	26.3672	54.7922	26.3672	53.4281	26.3672	55.2013	26.3672	53.4173	26.3672	55.6258	26.3672	53.4245	26.3672	56.0407	26.3672	53.444	26.3672	56.422	26.3672	53.4733	26.3672	56.748	26.3672	53.5132	26.3672	57.0008	26.3672	53.568	26.3672	57.1671	26.3672	53.6443	26.3672	57.2383	26.3672	53.7514	26.3672	57.2105	26.3672	53.8995	26.3672	57.0854	26.3672	54.098	26.3672	56.8696	26.3672	54.3531	26.3672	56.5756	26.3672	54.6651	26.3672	56.221	26.3672	55.0264	26.3672	55.8278	26.3672	55.4213
27.0996	56.2727	27.0996	56.0835	27.0996	56.5156	27.0996	55.9452	27.0996	56.8103	27.0996	55.8512	27.0996	57.1487	27.0996	55.7938	27.0996	57.5171	27.0996	55.7654	27.0996	57.8974	27.0996	55.7601	27.0996	58.2696	27.0996	55.7739	27.0996	58.6131	27.0996	55.8054	27.0996	58.9092	27.0996	55.8556	27.0996	59.1421	27.0996	55.9278	27.0996	59.2995	27.0996	56.0269	27.0996	59.3731	27.0996	56.159	27.0996	59.3594	27.0996	56.3303	27.0996	59.2591	27.0996	56.5457	27.0996	59.078	27.0996	56.807	27.0996	58.8263	27.0996	57.1113	27.0996	58.5187	27.0996	57.4505	27.0996	58.1734	27.0996	57.8105
27.832	58.5374	27.832	58.348	27.832	58.7746	27.832	58.2053	27.832	59.0561	27.832	58.1056	27.832	59.374	27.832	58.0434	27.832	59.716	27.832	58.0133	27.832	60.0662	27.832	58.0103	27.832	60.4073	27.832	58.0311	27.832	60.7213	27.832	58.0739	27.832	60.9919	27.832	58.1387	27.832	61.2051	27.832	58.227	27.832	61.3498	27.832	58.3417	27.832	61.4189	27.832	58.4861	27.832	61.4093	27.832	58.6637	27.832	61.3221	27.832	58.877	27.832	61.1626	27.832	59.1263	27.832	60.9403	27.832	59.4085	27.832	60.6683	27.832	59.7167	27.832	60.3623	27.832	60.0395
29.2969	62.8715	29.2969	62.647	29.2969	63.129	29.2969	62.4585	29.2969	63.4143	29.2969	62.3066	29.2969	63.7192	29.2969	62.1906	29.2969	64.0331	29.2969	62.1091	29.2969	64.3438	29.2969	62.0604	29.2969	64.6379	29.2969	62.0433	29.2969	64.902	29.2969	62.0574	29.2969	65.1234	29.2969	62.1029	29.2969	65.2914	29.2969	62.1809	29.2969	65.3971	29.2969	62.293	29.2969	65.4351	29.2969	62.4409	29.2969	65.4026	29.2969	62.6259	29.2969	65.3007	29.2969	62.848	29.2969	65.134	29.2969	63.105	29.2969	64.9106	29.2969	63.3923	29.2969	64.6416	29.2969	63.7017	29.2969	64.3406	29.2969	64.0224
30.0293	64.8173	30.0293	64.6332	30.0293	65.031	30.0293	64.4805	30.0293	65.2704	30.0293	64.3594	30.0293	65.5288	30.0293	64.2689	30.0293	65.7978	30.0293	64.2076	30.0293	66.0666	30.0293	64.1739	30.0293	66.3234	30.0293	64.1667	30.0293	66.5561	30.0293	64.1853	30.0293	66.753	30.0293	64.2297	30.0293	66.9038	30.0293	64.3006	30.0293	67.0004	30.0293	64.3988	30.0293	67.0375	30.0293	64.5256	30.0293	67.0127	30.0293	64.6817	30.0293	66.9271	30.0293	64.8673	30.0293	66.7854	30.0293	65.0811	30.0293	66.5951	30.0293	65.3196	30.0293	66.3667	30.0293	65.5771	30.0293	66.1123	30.0293	65.845
31.4941	67.5426	31.4941	67.3636	31.4941	67.749	31.4941	67.2143	31.4941	67.9785	31.4941	67.0955	31.4941	68.2246	31.4941	67.0068	31.4941	68.4791	31.4941	66.9471	31.4941	68.7318	31.4941	66.9151	31.4941	68.9717	31.4941	66.9096	31.4941	69.1877	31.4941	66.9297	31.4941	69.369	31.4941	66.9748	31.4941	69.5063	31.4941	67.0451	31.4941	69.5923	31.4941	67.1407	31.4941	69.6221	31.4941	67.2622	31.4941	69.594	31.4941	67.41	31.4941	69.5094	31.4941	67.5839	31.4941	69.373	31.4941	67.7829	31.4941	69.1923	31.4941	68.0041	31.4941	68.9774	31.4941	68.2425	31.4941	68.7396	31.4941	68.4909
32.2266	68.6791	32.2266	68.4849	32.2266	68.8984	32.2266	68.319	32.2266	69.1381	32.2266	68.1828	32.2266	69.3911	32.2266	68.0766	32.2266	69.6488	32.2266	67.9998	32.2266	69.9012	32.2266	67.9516	32.2266	70.1375	32.2266	67.931	32.2266	70.3465	32.2266	67.9373	32.2266	70.518	32.2266	67.9701	32.2266	70.643	32.2266	68.0296	32.2266	70.7145	32.2266	68.1161	32.2266	70.7281	32.2266	68.2304	32.2266	70.6824	32.2266	68.3732	32.2266	70.5794	32.2266	68.5449	32.2266	70.424	32.2266	68.7446	32.2266	70.2246	32.2266	68.9698	32.2266	69.9917	32.2266	69.2158	32.2266	69.7377	32.2266	69.4751
33.6914	71.5534	33.6914	71.3471	33.6914	71.7808	33.6914	71.1656	33.6914	72.024	33.6914	71.0113	33.6914	72.2761	33.6914	70.8856	33.6914	72.5289	33.6914	70.789	33.6914	72.773	33.6914	70.7218	33.6914	72.9985	33.6914	70.6838	33.6914	73.1954	33.6914	70.6753	33.6914	73.3542	33.6914	70.6965	33.6914	73.4669	33.6914	70.7479	33.6914	73.5271	33.6914	70.8303	33.6914	73.5309	33.6914	70.9443	33.6914	73.4769	33.6914	71.0903	33.6914	73.3669	33.6914	71.268	33.6914	73.2057	33.6914	71.4758	33.6914	73.0009	33.6914	71.71	33.6914	72.7626	33.6914	71.9651	33.6914	72.5024	33.6914	72.2327
34.4238	73.1764	34.4238	72.9738	34.4238	73.3977	34.4238	72.7938	34.4238	73.6324	34.4238	72.6389	34.4238	73.8741	34.4238	72.511	34.4238	74.1149	34.4238	72.4111	34.4238	74.3461	34.4238	72.3398	34.4238	74.5583	34.4238	72.2975	34.4238	74.7424	34.4238	72.2845	34.4238	74.8895	34.4238	72.3012	34.4238	74.9922	34.4238	72.3484	34.4238	75.0445	34.4238	72.4263	34.4238	75.0428	34.4238	72.5357	34.4238	74.9862	34.4238	72.6765	34.4238	74.8764	34.4238	72.8481	34.4238	74.7182	34.4238	73.0485	34.4238	74.519	34.4238	73.2744	34.4238	74.2884	34.4238	73.5199	34.4238	74.0374	34.4238	73.7775
35.8887	75.9218	35.8887	75.7361	35.8887	76.1243	35.8887	75.5708	35.8887	76.3387	35.8887	75.4286	35.8887	76.559	35.8887	75.3113	35.8887	76.7782	35.8887	75.2199	35.8887	76.9881	35.8887	75.1551	35.8887	77.1805	35.8887	75.1172	35.8887	77.3468	35.8887	75.1066	35.8887	77.4792	35.8887	75.1234	35.8887	77.5709	35.8887	75.168	35.8887	77.6165	35.8887	75.2405	35.8887	77.6131	35.8887	75.3411	35.8887	77.5598	35.8887	75.4697	35.8887	77.4585	35.8887	75.6255	35.8887	77.3138	35.8887	75.8067	35.8887	77.1326	35.8887	76.0102	35.8887	76.9237	35.8887	76.2312	35.8887	76.6971	35.8887	76.463
37.3535	78.5459	37.3535	78.369	37.3535	78.7375	37.3535	78.2104	37.3535	78.9391	37.3535	78.0727	37.3535	79.1449	37.3535	77.958	37.3535	79.3482	37.3535	77.8676	37.3535	79.5417	37.3535	77.8022	37.3535	79.7177	37.3535	77.7623	37.3535	79.8683	37.3535	77.7484	37.3535	79.9864	37.3535	77.7607	37.3535	80.0657	37.3535	77.7992	37.3535	80.1016	37.3535	77.8643	37.3535	80.0915	37.3535	77.9557	37.3535	80.035	37.3535	78.0734	37.3535	79.9342	37.3535	78.2164	37.3535	79.7938	37.3535	78.3831	37.3535	79.6204	37.3535	78.5709	37.3535	79.4225	37.3535	78.7755	37.3535	79.2095	37.3535	78.9909
38.8184	81.0571	38.8184	80.8899	38.8184	81.2371	38.8184	80.7392	38.8184	81.4256	38.8184	80.6076	38.8184	81.617	38.8184	80.4971	38.8184	81.8052	38.8184	80.4089	38.8184	81.9832	38.8184	80.3441	38.8184	82.1438	38.8184	80.3031	38.8184	82.2798	38.8184	80.2863	38.8184	82.3847	38.8184	80.2939	38.8184	82.4527	38.8184	80.3261	38.8184	82.4798	38.8184	80.383	38.8184	82.4638	38.8184	80.4645	38.8184	82.4045	38.8184	80.5703	38.8184	82.3045	38.8184	80.6998	38.8184	82.1682	38.8184	80.8517	38.8184	82.0023	38.8184	81.0237	38.8184	81.815	38.8184	81.212	38.8184	81.6151	38.8184	81.4113
39.5508	82.2671	39.5508	82.1039	39.5508	82.4427	39.5508	81.9565	39.5508	82.6262	39.5508	81.8278	39.5508	82.8124	39.5508	81.7197	39.5508	82.995	39.5508	81.6333	39.5508	83.1673	39.5508	81.5696	39.5508	83.3222	39.5508	81.5291	39.5508	83.4528	39.5508	81.5121	39.5508	83.5527	39.5508	81.5186	39.5508	83.6163	39.5508	81.5488	39.5508	83.6399	39.5508	81.6026	39.5508	83.6213	39.5508	81.68	39.5508	83.5608	39.5508	81.7808	39.5508	83.4608	39.5508	81.9044	39.5508	83.326	39.5508	82.0497	39.5508	83.163	39.5508	82.2145	39.5508	82.9799	39.5508	82.3956	39.5508	82.7854	39.5508	82.588
41.0156	84.3609	41.0156	84.2005	41.0156	84.5324	41.0156	84.0548	41.0156	84.7105	41.0156	83.9267	41.0156	84.8899	41.0156	83.8183	41.0156	85.0648	41.0156	83.7313	41.0156	85.2286	41.0156	83.6668	41.0156	85.3747	41.0156	83.6254	41.0156	85.4966	41.0156	83.6075	41.0156	85.5885	41.0156	83.6134	41.0156	85.6455	41.0156	83.643	41.0156	85.664	41.0156	83.6961	41.0156	85.6426	41.0156	83.7724	41.0156	85.5816	41.0156	83.8713	41.0156	85.4836	41.0156	83.992	41.0156	85.3533	41.0156	84.1328	41.0156	85.1971	41.0156	84.2916	41.0156	85.0222	41.0156	84.4652	41.0156	84.8369	41.0156	84.6489
42.4805	86.6698	42.4805	86.514	42.4805	86.835	42.4805	86.3712	42.4805	87.0051	42.4805	86.2445	42.4805	87.175	42.4805	86.136	42.4805	87.339	42.4805	86.0474	42.4805	87.4909	42.4805	85.9799	42.4805	87.6243	42.4805	85.9342	42.4805	87.7333	42.4805	85.9107	42.4805	87.8123	42.4805	85.9095	42.4805	87.857	42.4805	85.9306	42.4805	87.8642	42.4805	85.9737	42.4805	87.8329	42.4805	86.0388	42.4805	87.764	42.4805	86.1252	42.4805	87.6603	42.4805	86.2326	42.4805	87.527	42.4805	86.3598	42.4805	87.3705	42.4805	86.5052	42.4805	87.1985	42.4805	86.6664	42.4805	87.019	42.4805	86.8394
43.9453	88.7504	43.9453	88.5978	43.9453	88.9109	43.9453	88.4569	43.9453	89.0752	43.9453	88.3309	43.9453	89.2379	43.9453	88.2219	43.9453	89.3938	43.9453	88.1318	43.9453	89.5367	43.9453	88.0619	43.9453	89.6607	43.9453	88.013	43.9453	89.7602	43.9453	87.9855	43.9453	89.83	43.9453	87.9797	43.9453	89.866	43.9453	87.9954	43.9453	89.8658	43.9453	88.0326	43.9453	89.8284	43.9453	88.091	43.9453	89.755	43.9453	88.1703	43.9453	89.6489	43.9453	88.27	43.9453	89.5152	43.9453	88.3891	43.9453	89.3604	43.9453	88.5264	43.9453	89.1921	43.9453	88.6795	43.9453	89.0178	43.9453	88.8449
45.4102	90.7462	45.4102	90.596	45.4102	90.9032	45.4102	90.4564	45.4102	91.0628	45.4102	90.3304	45.4102	91.2198	45.4102	90.2206	45.4102	91.3691	45.4102	90.1289	45.4102	91.5049	45.4102	90.0567	45.4102	91.6216	45.4102	90.0049	45.4102	91.7136	45.4102	89.9741	45.4102	91.7764	45.4102	89.9646	45.4102	91.8061	45.4102	89.9765	45.4102	91.8005	45.4102	90.0096	45.4102	91.7591	45.4102	90.0636	45.4102	91.6831	45.4102	90.1383	45.4102	91.5759	45.4102	90.233	45.4102	91.4426	45.4102	90.347	45.4102	91.2898	45.4102	90.4789	45.4102	91.1246	45.4102	90.6266	45.4102	90.9546	45.4102	90.7867
47.6074	93.4593	47.6074	93.3159	47.6074	93.6081	47.6074	93.1818	47.6074	93.7582	47.6074	93.0599	47.6074	93.9049	47.6074	92.9529	47.6074	94.0429	47.6074	92.8627	47.6074	94.1671	47.6074	92.7908	47.6074	94.272	47.6074	92.7382	47.6074	94.3528	47.6074	92.7055	47.6074	94.4052	47.6074	92.6929	47.6074	94.4259	47.6074	92.7005	47.6074	94.4131	47.6074	92.7281	47.6074	94.3667	47.6074	92.7753	47.6074	94.2885	47.6074	92.8417	47.6074	94.1818	47.6074	92.927	47.6074	94.052	47.6074	93.0302	47.6074	93.9054	47.6074	93.1503	47.6074	93.7489	47.6074	93.2856	47.6074	93.5894	47.6074	93.4333
49.0723	95.17	49.0723	95.0286	49.0723	95.3162	49.0723	94.8958	49.0723	95.463	49.0723	94.7747	49.0723	95.6058	49.0723	94.668	49.0723	95.7393	49.0723	94.5777	49.0723	95.8586	49.0723	94.5052	49.0723	95.9584	49.0723	94.4517	49.0723	96.034	49.0723	94.4178	49.0723	96.0813	49.0723	94.4037	49.0723	96.0974	49.0723	94.4094	49.0723	96.0808	49.0723	94.4346	49.0723	96.0314	49.0723	94.479	49.0723	95.9513	49.0723	94.5421	49.0723	95.8441	49.0723	94.6234	49.0723	95.715	49.0723	94.7222	49.0723	95.5704	49.0723	94.8375	49.0723	95.4171	49.0723	94.9677	49.0723	95.2617	49.0723	95.1103
50.5371	96.7869	50.5371	96.6471	50.5371	96.9309	50.5371	96.5153	50.5371	97.0749	50.5371	96.3948	50.5371	97.2141	50.5371	96.2881	50.5371	97.3438	50.5371	96.1975	50.5371	97.4586	50.5371	96.1244	50.5371	97.5538	50.5371	96.0701	50.5371	97.6248	50.5371	96.0351	50.5371	97.6677	50.5371	96.0198	50.5371	97.6798	50.5371	96.0239	50.5371	97.6598	50.5371	96.0473	50.5371	97.6079	50.5371	96.0895	50.5371	97.5264	50.5371	96.15	50.5371	97.4189	50.5371	96.2282	50.5371	97.2907	50.5371	96.3235	50.5371	97.1481	50.5371	96.4348	50.5371	96.9978	50.5371	96.5607	50.5371	96.8462	50.5371	96.699
52.7344	98.9853	52.7344	98.8484	52.7344	99.1256	52.7344	98.7187	52.7344	99.265	52.7344	98.5995	52.7344	99.399	52.7344	98.4935	52.7344	99.5227	52.7344	98.4029	52.7344	99.6311	52.7344	98.3295	52.7344	99.7197	52.7344	98.2743	52.7344	99.7841	52.7344	98.2381	52.7344	99.8208	52.7344	98.221	52.7344	99.8274	52.7344	98.2231	52.7344	99.8029	52.7344	98.2439	52.7344	99.7478	52.7344	98.2829	52.7344	99.6646	52.7344	98.3395	52.7344	99.5572	52.7344	98.4131	52.7344	99.4308	52.7344	98.5031	52.7344	99.2916	52.7344	98.6084	52.7344	99.1461	52.7344	98.7279	52.7344	99.0003	52.7344	98.8595
54.1992	100.254	54.1992	100.119	54.1992	100.393	54.1992	99.9905	54.1992	100.53	54.1992	99.8723	54.1992	100.661	54.1992	99.767	54.1992	100.781	54.1992	99.677	54.1992	100.887	54.1992	99.6039	54.1992	100.972	54.1992	99.5489	54.1992	101.033	54.1992	99.5127	54.1992	101.066	54.1992	99.4955	54.1992	101.07	54.1992	99.497	54.1992	101.043	54.1992	99.517	54.1992	100.987	54.1992	99.5547	54.1992	100.903	54.1992	99.6095	54.1992	100.796	54.1992	99.6808	54.1992	100.671	54.1992	99.7678	54.1992	100.534	54.1992	99.8697	54.1992	100.392	54.1992	99.9853	54.1992	100.25	54.1992	100.113
56.3965	101.818	56.3965	101.683	56.3965	101.955	56.3965	101.554	56.3965	102.09	56.3965	101.436	56.3965	102.219	56.3965	101.329	56.3965	102.336	56.3965	101.238	56.3965	102.437	56.3965	101.164	56.3965	102.518	56.3965	101.108	56.3965	102.575	56.3965	101.07	56.3965	102.604	56.3965	101.052	56.3965	102.604	56.3965	101.052	56.3965	102.574	56.3965	101.071	56.3965	102.515	56.3965	101.108	56.3965	102.43	56.3965	101.161	56.3965	102.322	56.3965	101.231	56.3965	102.198	56.3965	101.315	56.3965	102.063	56.3965	101.415	56.3965	101.923	56.3965	101.527	56.3965	101.785	56.3965	101.651
