"SPL Horizontal"																																																																							
"On-Axis"		"10°"		"-10°"		"20°"		"-20°"		"30°"		"-30°"		"40°"		"-40°"		"50°"		"-50°"		"60°"		"-60°"		"70°"		"-70°"		"80°"		"-80°"		"90°"		"-90°"		"100°"		"-100°"		"110°"		"-110°"		"120°"		"-120°"		"130°"		"-130°"		"140°"		"-140°"		"150°"		"-150°"		"160°"		"-160°"		"170°"		"-170°"		"180°"	
"Frequency [Hz]"	"Sound Pessure Level [dB]    /  [	0.13	V at 	1	m]"	"Frequency [Hz]"	"Sound Pessure Level [dB]    /  [	0.13	V at 	1	m]"	"Frequency [Hz]"	"Sound Pessure Level [dB]    /  [	0.13	V at 	1	m]"	"Frequency [Hz]"	"Sound Pessure Level [dB]    /  [	0.13	V at 	1	m]"	"Frequency [Hz]"	"Sound Pessure Level [dB]    /  [	0.13	V at 	1	m]"	"Frequency [Hz]"	"Sound Pessure Level [dB]    /  [	0.13	V at 	1	m]"	"Frequency [Hz]"	"Sound Pessure Level [dB]    /  [	0.13	V at 	1	m]"	"Frequency [Hz]"	"Sound Pessure Level [dB]    /  [	0.13	V at 	1	m]"	"Frequency [Hz]"	"Sound Pessure Level [dB]    /  [	0.13	V at 	1	m]"	"Frequency [Hz]"	"Sound Pessure Level [dB]    /  [	0.13	V at 	1	m]"	"Frequency [Hz]"	"Sound Pessure Level [dB]    /  [	0.13	V at 	1	m]"	"Frequency [Hz]"	"Sound Pessure Level [dB]    /  [	0.13	V at 	1	m]"	"Frequency [Hz]"	"Sound Pessure Level [dB]    /  [	0.13	V at 	1	m]"	"Frequency [Hz]"	"Sound Pessure Level [dB]    /  [	0.13	V at 	1	m]"	"Frequency [Hz]"	"Sound Pessure Level [dB]    /  [	0.13	V at 	1	m]"	"Frequency [Hz]"	"Sound Pessure Level [dB]    /  [	0.13	V at 	1	m]"	"Frequency [Hz]"	"Sound Pessure Level [dB]    /  [	0.13	V at 	1	m]"	"Frequency [Hz]"	"Sound Pessure Level [dB]    /  [	0.13	V at 	1	m]"	"Frequency [Hz]"	"Sound Pessure Level [dB]    /  [	0.13	V at 	1	m]"	"Frequency [Hz]"	"Sound Pessure Level [dB]    /  [	0.13	V at 	1	m]"	"Frequency [Hz]"	"Sound Pessure Level [dB]    /  [	0.13	V at 	1	m]"	"Frequency [Hz]"	"Sound Pessure Level [dB]    /  [	0.13	V at 	1	m]"	"Frequency [Hz]"	"Sound Pessure Level [dB]    /  [	0.13	V at 	1	m]"	"Frequency [Hz]"	"Sound Pessure Level [dB]    /  [	0.13	V at 	1	m]"	"Frequency [Hz]"	"Sound Pessure Level [dB]    /  [	0.13	V at 	1	m]"	"Frequency [Hz]"	"Sound Pessure Level [dB]    /  [	0.13	V at 	1	m]"	"Frequency [Hz]"	"Sound Pessure Level [dB]    /  [	0.13	V at 	1	m]"	"Frequency [Hz]"	"Sound Pessure Level [dB]    /  [	0.13	V at 	1	m]"	"Frequency [Hz]"	"Sound Pessure Level [dB]    /  [	0.13	V at 	1	m]"	"Frequency [Hz]"	"Sound Pessure Level [dB]    /  [	0.13	V at 	1	m]"	"Frequency [Hz]"	"Sound Pessure Level [dB]    /  [	0.13	V at 	1	m]"	"Frequency [Hz]"	"Sound Pessure Level [dB]    /  [	0.13	V at 	1	m]"	"Frequency [Hz]"	"Sound Pessure Level [dB]    /  [	0.13	V at 	1	m]"	"Frequency [Hz]"	"Sound Pessure Level [dB]    /  [	0.13	V at 	1	m]"	"Frequency [Hz]"	"Sound Pessure Level [dB]    /  [	0.13	V at 	1	m]"	"Frequency [Hz]"	"Sound Pessure Level [dB]    /  [	0.13	V at 	1	m]"
20.5078	47.5652	20.5078	47.5116	20.5078	47.6808	20.5078	47.5196	20.5078	47.8564	20.5078	47.587	20.5078	48.0875	20.5078	47.7093	20.5078	48.3659	20.5078	47.8797	20.5078	48.6792	20.5078	48.0896	20.5078	49.0108	20.5078	48.3307	20.5078	49.3418	20.5078	48.5964	20.5078	49.6542	20.5078	48.8843	20.5078	49.9352	20.5078	49.1956	20.5078	50.18	20.5078	49.5326	20.5078	50.3933	20.5078	49.8931	20.5078	50.5869	20.5078	50.2659	20.5078	50.7734	20.5078	50.6289	20.5078	50.9597	20.5078	50.953	20.5078	51.1406	20.5078	51.2085	20.5078	51.2981	20.5078	51.3731	20.5078	51.4058	20.5078	51.437
21.2402	45.1207	21.2402	45.0912	21.2402	45.1982	21.2402	45.1063	21.2402	45.3261	21.2402	45.162	21.2402	45.5052	21.2402	45.2534	21.2402	45.7341	21.2402	45.3747	21.2402	46.0076	21.2402	45.52	21.2402	46.3164	21.2402	45.6847	21.2402	46.6473	21.2402	45.868	21.2402	46.9843	21.2402	46.0749	21.2402	47.3112	21.2402	46.3155	21.2402	47.6144	21.2402	46.6001	21.2402	47.885	21.2402	46.9317	21.2402	48.1195	21.2402	47.299	21.2402	48.3184	21.2402	47.6764	21.2402	48.4828	21.2402	48.0297	21.2402	48.6106	21.2402	48.3267	21.2402	48.6942	21.2402	48.5448	21.2402	48.7208	21.2402	48.675
21.9727	43.678	21.9727	43.6977	21.9727	43.6828	21.9727	43.7367	21.9727	43.7194	21.9727	43.7909	21.9727	43.7961	21.9727	43.8579	21.9727	43.922	21.9727	43.9372	21.9727	44.104	21.9727	44.0314	21.9727	44.3452	21.9727	44.1491	21.9727	44.6423	21.9727	44.3064	21.9727	44.9855	21.9727	44.527	21.9727	45.3611	21.9727	44.8358	21.9727	45.7548	21.9727	45.2458	21.9727	46.1542	21.9727	45.7454	21.9727	46.5495	21.9727	46.2952	21.9727	46.9309	21.9727	46.8389	21.9727	47.286	21.9727	47.3196	21.9727	47.5974	21.9727	47.6929	21.9727	47.8421	21.9727	47.9328	21.9727	47.9948	21.9727	48.031
22.7051	45.2147	22.7051	45.1683	22.7051	45.2791	22.7051	45.1358	22.7051	45.3671	22.7051	45.1154	22.7051	45.4857	22.7051	45.108	22.7051	45.6419	22.7051	45.1177	22.7051	45.8412	22.7051	45.1535	22.7051	46.0863	22.7051	45.2306	22.7051	46.3758	22.7051	45.3711	22.7051	46.7041	22.7051	45.6013	22.7051	47.0626	22.7051	45.9437	22.7051	47.4414	22.7051	46.405	22.7051	47.831	22.7051	46.9661	22.7051	48.2218	22.7051	47.5821	22.7051	48.6025	22.7051	48.1936	22.7051	48.9576	22.7051	48.7419	22.7051	49.2651	22.7051	49.1802	22.7051	49.4978	22.7051	49.4789	22.7051	49.6268	22.7051	49.6263
23.4375	40.971	23.4375	40.9433	23.4375	40.9612	23.4375	40.8665	23.4375	40.9417	23.4375	40.7471	23.4375	40.957	23.4375	40.6142	23.4375	41.066	23.4375	40.5291	23.4375	41.3316	23.4375	40.5924	23.4375	41.8004	23.4375	40.9296	23.4375	42.4812	23.4375	41.6375	23.4375	43.3409	23.4375	42.7163	23.4375	44.3219	23.4375	44.0593	23.4375	45.3657	23.4375	45.5141	23.4375	46.4245	23.4375	46.9433	23.4375	47.4616	23.4375	48.2467	23.4375	48.4444	23.4375	49.3578	23.4375	49.3388	23.4375	50.2348	23.4375	50.1076	23.4375	50.8534	23.4375	50.7119	23.4375	51.2035	23.4375	51.1152	23.4375	51.2866
24.1699	41.9793	24.1699	42.0504	24.1699	41.866	24.1699	42.0945	24.1699	41.7276	24.1699	42.1571	24.1699	41.6187	24.1699	42.3135	24.1699	41.6367	24.1699	42.6573	24.1699	41.9068	24.1699	43.2686	24.1699	42.5276	24.1699	44.1732	24.1699	43.5045	24.1699	45.3265	24.1699	44.744	24.1699	46.6384	24.1699	46.1155	24.1699	48.0108	24.1699	47.5098	24.1699	49.3601	24.1699	48.8555	24.1699	50.6215	24.1699	50.1088	24.1699	51.7456	24.1699	51.2408	24.1699	52.6943	24.1699	52.2276	24.1699	53.4388	24.1699	53.0465	24.1699	53.9591	24.1699	53.6753	24.1699	54.2431	24.1699	54.0942	24.1699	54.2869
25.6348	42.9781	25.6348	43.1682	25.6348	42.8802	25.6348	43.4654	25.6348	42.9202	25.6348	43.9298	25.6348	43.1989	25.6348	44.6337	25.6348	43.8275	25.6348	45.6162	25.6348	44.851	25.6348	46.8546	25.6348	46.2054	25.6348	48.2756	25.6348	47.7596	25.6348	49.7916	25.6348	49.3871	25.6348	51.3276	25.6348	50.9994	25.6348	52.8279	25.6348	52.5441	25.6348	54.2507	25.6348	53.9899	25.6348	55.5614	25.6348	55.3145	25.6348	56.7288	25.6348	56.4971	25.6348	57.7232	25.6348	57.5155	25.6348	58.5183	25.6348	58.347	25.6348	59.0922	25.6348	58.9697	25.6348	59.4291	25.6348	59.3652	25.6348	59.5204
26.3672	45.9169	26.3672	46.1213	26.3672	45.8722	26.3672	46.4966	26.3672	46.0138	26.3672	47.0781	26.3672	46.3992	26.3672	47.8964	26.3672	47.0839	26.3672	48.9499	26.3672	48.0789	26.3672	50.1973	26.3672	49.333	26.3672	51.5727	26.3672	50.7558	26.3672	53.0078	26.3672	52.2556	26.3672	54.4455	26.3672	53.7611	26.3672	55.8418	26.3672	55.2226	26.3672	57.1619	26.3672	56.6058	26.3672	58.3757	26.3672	57.8832	26.3672	59.4549	26.3672	59.0299	26.3672	60.3728	26.3672	60.0212	26.3672	61.1046	26.3672	60.8332	26.3672	61.6295	26.3672	61.4445	26.3672	61.9316	26.3672	61.8379	26.3672	62.0019
27.0996	50.0689	27.0996	50.2054	27.0996	50.0678	27.0996	50.4855	27.0996	50.2158	27.0996	50.9321	27.0996	50.5439	27.0996	51.5692	27.0996	51.086	27.0996	52.4044	27.0996	51.8582	27.0996	53.4199	27.0996	52.844	27.0996	54.5753	27.0996	53.9971	27.0996	55.8193	27.0996	55.2571	27.0996	57.1007	27.0996	56.5651	27.0996	58.3744	27.0996	57.8712	27.0996	59.6007	27.0996	59.1352	27.0996	60.7441	27.0996	60.3223	27.0996	61.7715	27.0996	61.401	27.0996	62.6522	27.0996	62.3416	27.0996	63.3585	27.0996	63.1165	27.0996	63.8676	27.0996	63.7016	27.0996	64.1626	27.0996	64.0781	27.0996	64.2335
27.832	53.5368	27.832	53.6339	27.832	53.5589	27.832	53.8576	27.832	53.7074	27.832	54.2257	27.832	54.0015	27.832	54.7572	27.832	54.4644	27.832	55.4616	27.832	55.1112	27.832	56.3305	27.832	55.9384	27.832	57.3367	27.832	56.9214	27.832	58.441	27.832	58.02	27.832	59.5998	27.832	59.1878	27.832	60.7706	27.832	60.3793	27.832	61.9137	27.832	61.5525	27.832	62.9921	27.832	62.6688	27.832	63.9711	27.832	63.6921	27.832	64.8179	27.832	64.5884	27.832	65.5033	27.832	65.3276	27.832	66.0029	27.832	65.884	27.832	66.298	27.832	66.2381	27.832	66.3776
29.2969	59.4042	29.2969	59.494	29.2969	59.4078	29.2969	59.6821	29.2969	59.5076	29.2969	59.9795	29.2969	59.714	29.2969	60.3985	29.2969	60.0416	29.2969	60.9478	29.2969	60.5044	29.2969	61.627	29.2969	61.1095	29.2969	62.4243	29.2969	61.8523	29.2969	63.3176	29.2969	62.7157	29.2969	64.2773	29.2969	63.6716	29.2969	65.2697	29.2969	64.6847	29.2969	66.2593	29.2969	65.7156	29.2969	67.2096	29.2969	66.7235	29.2969	68.0844	29.2969	67.6674	29.2969	68.8486	29.2969	68.5087	29.2969	69.4703	29.2969	69.2124	29.2969	69.9225	29.2969	69.7494	29.2969	70.1849	29.2969	70.098	29.2969	70.2448
30.0293	62.1534	30.0293	62.2275	30.0293	62.1672	30.0293	62.3929	30.0293	62.2714	30.0293	62.658	30.0293	62.474	30.0293	63.0327	30.0293	62.7863	30.0293	63.525	30.0293	63.2187	30.0293	64.1365	30.0293	63.7769	30.0293	64.86	30.0293	64.4582	30.0293	65.6791	30.0293	65.2496	30.0293	66.5695	30.0293	66.1287	30.0293	67.5011	30.0293	67.0658	30.0293	68.44	30.0293	68.026	30.0293	69.3498	30.0293	68.971	30.0293	70.1933	30.0293	69.8614	30.0293	70.9344	30.0293	70.6587	30.0293	71.5404	30.0293	71.3279	30.0293	71.9834	30.0293	71.8392	30.0293	72.243	30.0293	72.1701	30.0293	72.3064
31.4941	67.7473	31.4941	67.8	31.4941	67.767	31.4941	67.9279	31.4941	67.8605	31.4941	68.1372	31.4941	68.0328	31.4941	68.4359	31.4941	68.2915	31.4941	68.8312	31.4941	68.6446	31.4941	69.3272	31.4941	69.0981	31.4941	69.9221	31.4941	69.6531	31.4941	70.6066	31.4941	70.3041	31.4941	71.3644	31.4941	71.0382	31.4941	72.1721	31.4941	71.8345	31.4941	73.0004	31.4941	72.6656	31.4941	73.8156	31.4941	73.4979	31.4941	74.5815	31.4941	74.2944	31.4941	75.2615	31.4941	75.017	31.4941	75.8219	31.4941	75.6299	31.4941	76.2339	31.4941	76.1018	31.4941	76.4762	31.4941	76.4089	31.4941	76.5357
32.2266	70.1806	32.2266	70.2313	32.2266	70.1979	32.2266	70.3522	32.2266	70.2844	32.2266	70.5489	32.2266	70.4446	32.2266	70.8283	32.2266	70.6856	32.2266	71.1974	32.2266	71.0149	32.2266	71.6602	32.2266	71.4383	32.2266	72.2162	32.2266	71.9578	32.2266	72.8584	32.2266	72.5693	32.2266	73.573	32.2266	73.2618	32.2266	74.3392	32.2266	74.017	32.2266	75.1298	32.2266	74.8094	32.2266	75.9127	32.2266	75.6071	32.2266	76.6519	32.2266	76.3743	32.2266	77.311	32.2266	77.0734	32.2266	77.8559	32.2266	77.6685	32.2266	78.2575	32.2266	78.128	32.2266	78.4938	32.2266	78.4277	32.2266	78.5517
33.6914	74.8979	33.6914	74.9381	33.6914	74.9191	33.6914	75.0418	33.6914	75.0025	33.6914	75.2136	33.6914	75.1512	33.6914	75.4591	33.6914	75.3704	33.6914	75.7844	33.6914	75.6659	33.6914	76.1937	33.6914	76.0426	33.6914	76.6876	33.6914	76.503	33.6914	77.2619	33.6914	77.0452	33.6914	77.9064	33.6914	77.6623	33.6914	78.6041	33.6914	78.3404	33.6914	79.3313	33.6914	79.0588	33.6914	80.0581	33.6914	79.7898	33.6914	80.7503	33.6914	80.5002	33.6914	81.3721	33.6914	81.1535	33.6914	81.8889	33.6914	81.7138	33.6914	82.2713	33.6914	82.1492	33.6914	82.4969	33.6914	82.4342	33.6914	82.5524
34.4238	77.0389	34.4238	77.0786	34.4238	77.0587	34.4238	77.1797	34.4238	77.1387	34.4238	77.3461	34.4238	77.2817	34.4238	77.5828	34.4238	77.4923	34.4238	77.8951	34.4238	77.7756	34.4238	78.2867	34.4238	78.1362	34.4238	78.7584	34.4238	78.5764	34.4238	79.3066	34.4238	79.095	34.4238	79.9224	34.4238	79.686	34.4238	80.5904	34.4238	80.3369	34.4238	81.2888	34.4238	81.0286	34.4238	81.9893	34.4238	81.7346	34.4238	82.6589	34.4238	82.4226	34.4238	83.2625	34.4238	83.057	34.4238	83.766	34.4238	83.602	34.4238	84.1398	34.4238	84.0257	34.4238	84.3613	34.4238	84.3028	34.4238	84.4169
35.8887	80.7811	35.8887	80.8213	35.8887	80.7976	35.8887	80.9195	35.8887	80.8715	35.8887	81.0784	35.8887	81.0048	35.8887	81.3017	35.8887	81.2012	35.8887	81.5933	35.8887	81.4645	35.8887	81.956	35.8887	81.7983	35.8887	82.3905	35.8887	82.2044	35.8887	82.8941	35.8887	82.6819	35.8887	83.4597	35.8887	83.2258	35.8887	84.0746	35.8887	83.826	35.8887	84.7199	35.8887	84.4658	35.8887	85.3701	35.8887	85.1216	35.8887	85.9947	35.8887	85.7638	35.8887	86.5601	35.8887	86.3588	35.8887	87.0334	35.8887	86.8723	35.8887	87.3856	35.8887	87.2732	35.8887	87.5941	35.8887	87.5364	35.8887	87.6456
37.3535	83.7315	37.3535	83.7696	37.3535	83.7465	37.3535	83.8617	37.3535	83.8149	37.3535	84.0097	37.3535	83.9384	37.3535	84.2165	37.3535	84.1196	37.3535	84.485	37.3535	84.3614	37.3535	84.8175	37.3535	84.6667	37.3535	85.2145	37.3535	85.037	37.3535	85.6744	37.3535	85.4719	37.3535	86.1914	37.3535	85.9678	37.3535	86.7551	37.3535	86.5165	37.3535	87.3491	37.3535	87.104	37.3535	87.9506	37.3535	87.7095	37.3535	88.5313	37.3535	88.306	37.3535	89.0594	37.3535	88.8618	37.3535	89.5031	37.3535	89.3442	37.3535	89.8338	37.3535	89.7226	37.3535	90.0296	37.3535	89.9724	37.3535	90.0769
38.8184	85.8265	38.8184	85.8604	38.8184	85.8422	38.8184	85.9444	38.8184	85.9078	38.8184	86.0803	38.8184	86.0244	38.8184	86.27	38.8184	86.1941	38.8184	86.516	38.8184	86.4189	38.8184	86.82	38.8184	86.7011	38.8184	87.1827	38.8184	87.0419	38.8184	87.6029	38.8184	87.441	38.8184	88.0762	38.8184	87.8957	38.8184	88.594	38.8184	88.3991	38.8184	89.1419	38.8184	88.9393	38.8184	89.6997	38.8184	89.498	38.8184	90.241	38.8184	90.0504	38.8184	90.736	38.8184	90.5672	38.8184	91.154	38.8184	91.0172	38.8184	91.4671	38.8184	91.3708	38.8184	91.6537	38.8184	91.604	38.8184	91.7005
39.5508	86.6479	39.5508	86.6792	39.5508	86.6642	39.5508	86.7588	39.5508	86.7284	39.5508	86.888	39.5508	86.8414	39.5508	87.0688	39.5508	87.0048	39.5508	87.303	39.5508	87.2205	39.5508	87.5923	39.5508	87.4902	39.5508	87.9374	39.5508	87.8152	39.5508	88.3372	39.5508	88.1951	39.5508	88.7878	39.5508	88.6276	39.5508	89.2816	39.5508	89.1066	39.5508	89.8053	39.5508	89.6214	39.5508	90.3398	39.5508	90.1549	39.5508	90.8601	39.5508	90.6838	39.5508	91.3373	39.5508	91.18	39.5508	91.7412	39.5508	91.6129	39.5508	92.0445	39.5508	91.9539	39.5508	92.2258	39.5508	92.1789	39.5508	92.2717
41.0156	87.8286	41.0156	87.8587	41.0156	87.8421	41.0156	87.933	41.0156	87.8991	41.0156	88.0524	41.0156	88.0003	41.0156	88.2184	41.0156	88.1469	41.0156	88.4326	41.0156	88.3401	41.0156	88.6963	41.0156	88.5815	41.0156	89.01	41.0156	88.8721	41.0156	89.373	41.0156	89.2122	41.0156	89.7822	41.0156	89.6006	41.0156	90.2311	41.0156	90.0327	41.0156	90.7084	41.0156	90.4999	41.0156	91.197	41.0156	90.9875	41.0156	91.6741	41.0156	91.4746	41.0156	92.1127	41.0156	91.935	41.0156	92.4845	41.0156	92.3398	41.0156	92.7633	41.0156	92.6611	41.0156	92.9283	41.0156	92.8754	41.0156	92.9667
42.4805	88.5123	42.4805	88.5437	42.4805	88.5211	42.4805	88.6157	42.4805	88.5704	42.4805	88.729	42.4805	88.6607	42.4805	88.8846	42.4805	88.793	42.4805	89.0834	42.4805	88.9685	42.4805	89.3265	42.4805	89.1886	42.4805	89.6142	42.4805	89.4544	42.4805	89.9461	42.4805	89.7663	42.4805	90.3199	42.4805	90.1233	42.4805	90.7302	42.4805	90.5218	42.4805	91.1677	42.4805	90.9543	42.4805	91.6173	42.4805	91.4075	42.4805	92.0586	42.4805	91.8622	42.4805	92.4665	42.4805	92.2937	42.4805	92.8139	42.4805	92.6745	42.4805	93.0754	42.4805	92.9776	42.4805	93.2306	42.4805	93.1802	42.4805	93.2667
43.9453	89.0651	43.9453	89.0952	43.9453	89.0724	43.9453	89.1629	43.9453	89.1173	43.9453	89.2686	43.9453	89.2002	43.9453	89.413	43.9453	89.322	43.9453	89.5968	43.9453	89.4833	43.9453	89.8206	43.9453	89.6855	43.9453	90.0848	43.9453	89.9292	43.9453	90.389	43.9453	90.215	43.9453	90.7313	43.9453	90.5423	43.9453	91.1076	43.9453	90.9081	43.9453	91.5095	43.9453	91.3059	43.9453	91.9241	43.9453	91.7242	43.9453	92.3324	43.9453	92.1455	43.9453	92.7113	43.9453	92.5469	43.9453	93.0353	43.9453	92.9026	43.9453	93.2798	43.9453	93.1866	43.9453	93.4251	43.9453	93.377	43.9453	93.4586
45.4102	89.4126	45.4102	89.4404	45.4102	89.4195	45.4102	89.5032	45.4102	89.4615	45.4102	89.6012	45.4102	89.5387	45.4102	89.7349	45.4102	89.6517	45.4102	89.9047	45.4102	89.8012	45.4102	90.1112	45.4102	89.9879	45.4102	90.3547	45.4102	90.2126	45.4102	90.6348	45.4102	90.4756	45.4102	90.95	45.4102	90.7764	45.4102	91.2967	45.4102	91.1127	45.4102	91.6678	45.4102	91.4789	45.4102	92.0513	45.4102	91.8647	45.4102	92.4303	45.4102	92.2546	45.4102	92.7829	45.4102	92.6274	45.4102	93.0851	45.4102	92.9589	45.4102	93.3136	45.4102	93.2246	45.4102	93.4493	45.4102	93.4033	45.4102	93.4803
47.6074	89.7787	47.6074	89.8022	47.6074	89.7866	47.6074	89.8573	47.6074	89.826	47.6074	89.944	47.6074	89.8971	47.6074	90.0624	47.6074	90.0001	47.6074	90.2129	47.6074	90.1354	47.6074	90.3958	47.6074	90.3032	47.6074	90.611	47.6074	90.5041	47.6074	90.8585	47.6074	90.7381	47.6074	91.1372	47.6074	91.0049	47.6074	91.4441	47.6074	91.3026	47.6074	91.7735	47.6074	91.6266	47.6074	92.1153	47.6074	91.9687	47.6074	92.4548	47.6074	92.3152	47.6074	92.7724	47.6074	92.6477	47.6074	93.0462	47.6074	92.9442	47.6074	93.2546	47.6074	93.1823	47.6074	93.3797	47.6074	93.3422	47.6074	93.4099
49.0723	89.9593	49.0723	89.9806	49.0723	89.9675	49.0723	90.0314	49.0723	90.0053	49.0723	90.1118	49.0723	90.0728	49.0723	90.2219	49.0723	90.1699	49.0723	90.3617	49.0723	90.2968	49.0723	90.5312	49.0723	90.4536	49.0723	90.7305	49.0723	90.6406	49.0723	90.9593	49.0723	90.8579	49.0723	91.2166	49.0723	91.1049	49.0723	91.5	49.0723	91.3802	49.0723	91.8045	49.0723	91.6798	49.0723	92.1211	49.0723	91.9961	49.0723	92.4363	49.0723	92.3169	49.0723	92.7322	49.0723	92.6252	49.0723	92.9884	49.0723	92.9006	49.0723	93.1842	49.0723	93.1219	49.0723	93.3026	49.0723	93.2701	49.0723	93.3322
50.5371	90.0813	50.5371	90.1015	50.5371	90.0889	50.5371	90.1495	50.5371	90.1244	50.5371	90.2252	50.5371	90.1876	50.5371	90.3286	50.5371	90.2787	50.5371	90.4595	50.5371	90.3974	50.5371	90.6179	50.5371	90.544	50.5371	90.8036	50.5371	90.7183	50.5371	91.0164	50.5371	90.9203	50.5371	91.2553	50.5371	91.1497	50.5371	91.5182	50.5371	91.405	50.5371	91.8005	50.5371	91.6827	50.5371	92.0942	50.5371	91.9761	50.5371	92.3871	50.5371	92.2742	50.5371	92.6626	50.5371	92.5611	50.5371	92.9015	50.5371	92.8181	50.5371	93.0844	50.5371	93.025	50.5371	93.1949	50.5371	93.164	50.5371	93.2224
52.7344	90.2213	52.7344	90.2395	52.7344	90.2285	52.7344	90.283	52.7344	90.261	52.7344	90.3516	52.7344	90.3187	52.7344	90.4452	52.7344	90.4014	52.7344	90.5633	52.7344	90.5088	52.7344	90.7057	52.7344	90.6408	52.7344	90.8721	52.7344	90.797	52.7344	91.0621	52.7344	90.9774	52.7344	91.2747	52.7344	91.1814	52.7344	91.5082	52.7344	91.4078	52.7344	91.7588	52.7344	91.6539	52.7344	92.0197	52.7344	91.9139	52.7344	92.2803	52.7344	92.1785	52.7344	92.526	52.7344	92.434	52.7344	92.7396	52.7344	92.6636	52.7344	92.9035	52.7344	92.8492	52.7344	93.0026	52.7344	92.9742	52.7344	93.027
54.1992	90.2882	54.1992	90.3061	54.1992	90.2941	54.1992	90.3477	54.1992	90.3237	54.1992	90.4127	54.1992	90.377	54.1992	90.5008	54.1992	90.4536	54.1992	90.6117	54.1992	90.5533	54.1992	90.7449	54.1992	90.6757	54.1992	90.9	54.1992	90.8206	54.1992	91.0764	54.1992	90.9876	54.1992	91.2734	54.1992	91.1764	54.1992	91.4893	54.1992	91.3859	54.1992	91.7207	54.1992	91.6136	54.1992	91.9616	54.1992	91.8545	54.1992	92.2023	54.1992	92.1	54.1992	92.4295	54.1992	92.3376	54.1992	92.6272	54.1992	92.5517	54.1992	92.779	54.1992	92.7251	54.1992	92.8705	54.1992	92.8425	54.1992	92.8925
56.3965	90.3432	56.3965	90.3572	56.3965	90.3513	56.3965	90.3931	56.3965	90.3813	56.3965	90.4507	56.3965	90.4329	56.3965	90.5296	56.3965	90.5059	56.3965	90.6293	56.3965	90.5996	56.3965	90.7493	56.3965	90.7137	56.3965	90.889	56.3965	90.8475	56.3965	91.048	56.3965	91.0005	56.3965	91.2253	56.3965	91.1723	56.3965	91.4196	56.3965	91.3617	56.3965	91.628	56.3965	91.5665	56.3965	91.8453	56.3965	91.7822	56.3965	92.0632	56.3965	92.0014	56.3965	92.2697	56.3965	92.2131	56.3965	92.4507	56.3965	92.4032	56.3965	92.5909	56.3965	92.5566	56.3965	92.6772	56.3965	92.6592	56.3965	92.7008
