"SPL Vertical"
"On-Axis"		"10°"		"-10°"		"20°"		"-20°"		"30°"		"-30°"		"40°"		"-40°"		"50°"		"-50°"		"60°"		"-60°"		"70°"		"-70°"		"80°"		"-80°"		"90°"		"-90°"		"100°"		"-100°"		"110°"		"-110°"		"120°"		"-120°"		"130°"		"-130°"		"140°"		"-140°"		"150°"		"-150°"		"160°"		"-160°"		"170°"		"-170°"		"180°"
"Frequency / Hz"	"Sound Pressure Level / dB (re 20 µPa/V)  [2.83  V @ 1. m]"	"Frequency / Hz"	"Sound Pressure Level / dB (re 20 µPa/V)  [2.83  V @ 1. m]"	"Frequency / Hz"	"Sound Pressure Level / dB (re 20 µPa/V)  [2.83  V @ 1. m]"	"Frequency / Hz"	"Sound Pressure Level / dB (re 20 µPa/V)  [2.83  V @ 1. m]"	"Frequency / Hz"	"Sound Pressure Level / dB (re 20 µPa/V)  [2.83  V @ 1. m]"	"Frequency / Hz"	"Sound Pressure Level / dB (re 20 µPa/V)  [2.83  V @ 1. m]"	"Frequency / Hz"	"Sound Pressure Level / dB (re 20 µPa/V)  [2.83  V @ 1. m]"	"Frequency / Hz"	"Sound Pressure Level / dB (re 20 µPa/V)  [2.83  V @ 1. m]"	"Frequency / Hz"	"Sound Pressure Level / dB (re 20 µPa/V)  [2.83  V @ 1. m]"	"Frequency / Hz"	"Sound Pressure Level / dB (re 20 µPa/V)  [2.83  V @ 1. m]"	"Frequency / Hz"	"Sound Pressure Level / dB (re 20 µPa/V)  [2.83  V @ 1. m]"	"Frequency / Hz"	"Sound Pressure Level / dB (re 20 µPa/V)  [2.83  V @ 1. m]"	"Frequency / Hz"	"Sound Pressure Level / dB (re 20 µPa/V)  [2.83  V @ 1. m]"	"Frequency / Hz"	"Sound Pressure Level / dB (re 20 µPa/V)  [2.83  V @ 1. m]"	"Frequency / Hz"	"Sound Pressure Level / dB (re 20 µPa/V)  [2.83  V @ 1. m]"	"Frequency / Hz"	"Sound Pressure Level / dB (re 20 µPa/V)  [2.83  V @ 1. m]"	"Frequency / Hz"	"Sound Pressure Level / dB (re 20 µPa/V)  [2.83  V @ 1. m]"	"Frequency / Hz"	"Sound Pressure Level / dB (re 20 µPa/V)  [2.83  V @ 1. m]"	"Frequency / Hz"	"Sound Pressure Level / dB (re 20 µPa/V)  [2.83  V @ 1. m]"	"Frequency / Hz"	"Sound Pressure Level / dB (re 20 µPa/V)  [2.83  V @ 1. m]"	"Frequency / Hz"	"Sound Pressure Level / dB (re 20 µPa/V)  [2.83  V @ 1. m]"	"Frequency / Hz"	"Sound Pressure Level / dB (re 20 µPa/V)  [2.83  V @ 1. m]"	"Frequency / Hz"	"Sound Pressure Level / dB (re 20 µPa/V)  [2.83  V @ 1. m]"	"Frequency / Hz"	"Sound Pressure Level / dB (re 20 µPa/V)  [2.83  V @ 1. m]"	"Frequency / Hz"	"Sound Pressure Level / dB (re 20 µPa/V)  [2.83  V @ 1. m]"	"Frequency / Hz"	"Sound Pressure Level / dB (re 20 µPa/V)  [2.83  V @ 1. m]"	"Frequency / Hz"	"Sound Pressure Level / dB (re 20 µPa/V)  [2.83  V @ 1. m]"	"Frequency / Hz"	"Sound Pressure Level / dB (re 20 µPa/V)  [2.83  V @ 1. m]"	"Frequency / Hz"	"Sound Pressure Level / dB (re 20 µPa/V)  [2.83  V @ 1. m]"	"Frequency / Hz"	"Sound Pressure Level / dB (re 20 µPa/V)  [2.83  V @ 1. m]"	"Frequency / Hz"	"Sound Pressure Level / dB (re 20 µPa/V)  [2.83  V @ 1. m]"	"Frequency / Hz"	"Sound Pressure Level / dB (re 20 µPa/V)  [2.83  V @ 1. m]"	"Frequency / Hz"	"Sound Pressure Level / dB (re 20 µPa/V)  [2.83  V @ 1. m]"	"Frequency / Hz"	"Sound Pressure Level / dB (re 20 µPa/V)  [2.83  V @ 1. m]"	"Frequency / Hz"	"Sound Pressure Level / dB (re 20 µPa/V)  [2.83  V @ 1. m]"	"Frequency / Hz"	"Sound Pressure Level / dB (re 20 µPa/V)  [2.83  V @ 1. m]"
20.5078	40.1092	20.5078	40.062	20.5078	40.2023	20.5078	40.0409	20.5078	40.3671	20.5078	40.0351	20.5078	40.6305	20.5078	40.0437	20.5078	41.0129	20.5078	40.0765	20.5078	41.5198	20.5078	40.1541	20.5078	42.1377	20.5078	40.3049	20.5078	42.8361	20.5078	40.5591	20.5078	43.5744	20.5078	40.9393	20.5078	44.3102	20.5078	41.4503	20.5078	45.0049	20.5078	42.0755	20.5078	45.6262	20.5078	42.7806	20.5078	46.1486	20.5078	43.5229	20.5078	46.5534	20.5078	44.26	20.5078	46.827	20.5078	44.955	20.5078	46.9616	20.5078	45.5777	20.5078	46.9535	20.5078	46.1047	20.5078	46.8039	20.5078	46.5179
21.9727	38.9974	21.9727	38.9132	21.9727	39.1138	21.9727	38.8382	21.9727	39.2937	21.9727	38.7607	21.9727	39.5723	21.9727	38.6806	21.9727	39.979	21.9727	38.6114	21.9727	40.5261	21.9727	38.5815	21.9727	41.2016	21.9727	38.6333	21.9727	41.9704	21.9727	38.8165	21.9727	42.7842	21.9727	39.1726	21.9727	43.5926	21.9727	39.7166	21.9727	44.3504	21.9727	40.4276	21.9727	45.0211	21.9727	41.256	21.9727	45.5767	21.9727	42.1406	21.9727	45.9967	21.9727	43.0236	21.9727	46.2671	21.9727	43.8581	21.9727	46.3794	21.9727	44.6082	21.9727	46.3302	21.9727	45.2476	21.9727	46.1208	21.9727	45.7566
23.4375	41.2449	23.4375	41.2824	23.4375	41.204	23.4375	41.29	23.4375	41.2011	23.4375	41.2552	23.4375	41.2887	23.4375	41.1792	23.4375	41.52	23.4375	41.0773	23.4375	41.9298	23.4375	40.9809	23.4375	42.518	23.4375	40.9378	23.4375	43.2471	23.4375	41.0075	23.4375	44.0567	23.4375	41.2464	23.4375	44.8825	23.4375	41.6853	23.4375	45.6687	23.4375	42.3133	23.4375	46.3725	23.4375	43.0814	23.4375	46.9631	23.4375	43.9223	23.4375	47.4191	23.4375	44.7708	23.4375	47.7264	23.4375	45.5736	23.4375	47.8765	23.4375	46.2916	23.4375	47.8658	23.4375	46.8966	23.4375	47.695	23.4375	47.369
24.9023	42.4875	24.9023	42.6056	24.9023	42.3357	24.9023	42.6675	24.9023	42.189	24.9023	42.6632	24.9023	42.1045	24.9023	42.5932	24.9023	42.152	24.9023	42.4685	24.9023	42.3943	24.9023	42.3132	24.9023	42.8589	24.9023	42.1673	24.9023	43.5207	24.9023	42.088	24.9023	44.3124	24.9023	42.1426	24.9023	45.1527	24.9023	42.3892	24.9023	45.969	24.9023	42.8503	24.9023	46.7065	24.9023	43.4999	24.9023	47.3273	24.9023	44.2742	24.9023	47.8067	24.9023	45.0974	24.9023	48.1292	24.9023	45.9018	24.9023	48.2859	24.9023	46.6352	24.9023	48.2737	24.9023	47.2606	24.9023	48.094	24.9023	47.7526
26.3672	41.1641	26.3672	41.2068	26.3672	41.1131	26.3672	41.198	26.3672	41.123	26.3672	41.1189	26.3672	41.2812	26.3672	40.9728	26.3672	41.6661	26.3672	40.7874	26.3672	42.3083	26.3672	40.6199	26.3672	43.1706	26.3672	40.5593	26.3672	44.1685	26.3672	40.7111	26.3672	45.2089	26.3672	41.1548	26.3672	46.2155	26.3672	41.8959	26.3672	47.135	26.3672	42.8608	26.3672	47.9328	26.3672	43.9405	26.3672	48.5869	26.3672	45.0363	26.3672	49.0835	26.3672	46.0775	26.3672	49.4139	26.3672	47.0194	26.3672	49.5735	26.3672	47.8346	26.3672	49.5605	26.3672	48.5061	26.3672	49.3757	26.3672	49.0224
27.832	44.4399	27.832	44.5573	27.832	44.279	27.832	44.6069	27.832	44.1176	27.832	44.5786	27.832	44.0196	27.832	44.4743	27.832	44.0635	27.832	44.3085	27.832	44.3188	27.832	44.1107	27.832	44.8129	27.832	43.9301	27.832	45.5136	27.832	43.8359	27.832	46.3443	27.832	43.9066	27.832	47.2175	27.832	44.203	27.832	48.0585	27.832	44.7378	27.832	48.8133	27.832	45.466	27.832	49.4457	27.832	46.3079	27.832	49.9326	27.832	47.1806	27.832	50.2602	27.832	48.0164	27.832	50.4209	27.832	48.7672	27.832	50.4119	27.832	49.4005	27.832	50.2347	27.832	49.8944
29.2969	44.8987	29.2969	45.0213	29.2969	44.7407	29.2969	45.0772	29.2969	44.6013	29.2969	45.0542	29.2969	44.5589	29.2969	44.9551	29.2969	44.7014	29.2969	44.7986	29.2969	45.093	29.2969	44.6223	29.2969	45.7378	29.2969	44.486	29.2969	46.5752	29.2969	44.4692	29.2969	47.5122	29.2969	44.6531	29.2969	48.4589	29.2969	45.0862	29.2969	49.347	29.2969	45.7571	29.2969	50.1302	29.2969	46.5996	29.2969	50.7791	29.2969	47.5252	29.2969	51.2752	29.2969	48.4533	29.2969	51.6077	29.2969	49.3236	29.2969	51.7705	29.2969	50.0948	29.2969	51.762	29.2969	50.7397	29.2969	51.5836	29.2969	51.24
30.7617	44.5083	30.7617	44.6653	30.7617	44.336	30.7617	44.7601	30.7617	44.2286	30.7617	44.7734	30.7617	44.2927	30.7617	44.7083	30.7617	44.6272	30.7617	44.5894	30.7617	45.2694	30.7617	44.4662	30.7617	46.1684	30.7617	44.4147	30.7617	47.2174	30.7617	44.5279	30.7617	48.3065	30.7617	44.8856	30.7617	49.3522	30.7617	45.5132	30.7617	50.3003	30.7617	46.3655	30.7617	51.118	30.7617	47.3527	30.7617	51.7855	30.7617	48.3812	30.7617	52.2911	30.7617	49.3768	30.7617	52.6277	30.7617	50.2891	30.7617	52.7918	30.7617	51.0856	30.7617	52.7826	30.7617	51.7452	30.7617	52.6019	30.7617	52.2539
32.2266	45.8947	32.2266	46.023	32.2266	45.7541	32.2266	46.0988	32.2266	45.6667	32.2266	46.1037	32.2266	45.7187	32.2266	46.0378	32.2266	45.9936	32.2266	45.9192	32.2266	46.533	32.2266	45.7873	32.2266	47.3104	32.2266	45.7047	32.2266	48.2453	32.2266	45.7536	32.2266	49.2419	32.2266	46.0133	32.2266	50.2188	32.2266	46.5251	32.2266	51.1179	32.2266	47.2678	32.2266	51.901	32.2266	48.1685	32.2266	52.544	32.2266	49.1377	32.2266	53.0316	32.2266	50.0974	32.2266	53.3546	32.2266	50.9905	32.2266	53.508	32.2266	51.7787	32.2266	53.49	32.2266	52.437	32.2266	53.302	32.2266	52.9485
33.6914	47.4167	33.6914	47.5379	33.6914	47.269	33.6914	47.5993	33.6914	47.1509	33.6914	47.5861	33.6914	47.1398	33.6914	47.4993	33.6914	47.3187	33.6914	47.3553	33.6914	47.7433	33.6914	47.1896	33.6914	48.4096	33.6914	47.06	33.6914	49.2548	33.6914	47.0446	33.6914	50.1885	33.6914	47.2246	33.6914	51.1257	33.6914	47.6512	33.6914	52.0017	33.6914	48.3164	33.6914	52.7725	33.6914	49.1565	33.6914	53.4097	33.6914	50.0832	33.6914	53.8955	33.6914	51.0151	33.6914	54.2189	33.6914	51.8905	33.6914	54.3739	33.6914	52.6674	33.6914	54.3585	33.6914	53.3182	33.6914	54.1738	33.6914	53.8243
35.1562	48.2832	35.1562	48.3843	35.1562	48.1693	35.1562	48.4373	35.1562	48.0997	35.1562	48.4257	35.1562	48.1495	35.1562	48.3503	35.1562	48.3935	35.1562	48.2283	35.1562	48.8746	35.1562	48.0966	35.1562	49.5787	35.1562	48.0138	35.1562	50.441	35.1562	48.0558	35.1562	51.376	35.1562	48.2963	35.1562	52.3052	35.1562	48.7751	35.1562	53.1695	35.1562	49.4756	35.1562	53.9281	35.1562	50.332	35.1562	54.5545	35.1562	51.2607	35.1562	55.0317	35.1562	52.1859	35.1562	55.3491	35.1562	53.0512	35.1562	55.5007	35.1562	53.8174	35.1562	55.4846	35.1562	54.4586	35.1562	55.3021	35.1562	54.9575
36.6211	49.6606	36.6211	49.7987	36.6211	49.4948	36.6211	49.8761	36.6211	49.3554	36.6211	49.8776	36.6211	49.3171	36.6211	49.8019	36.6211	49.4614	36.6211	49.6623	36.6211	49.8454	36.6211	49.4891	36.6211	50.4702	36.6211	49.3338	36.6211	51.2782	36.6211	49.2689	36.6211	52.1815	36.6211	49.3759	36.6211	53.0946	36.6211	49.716	36.6211	53.9513	36.6211	50.2978	36.6211	54.7059	36.6211	51.0713	36.6211	55.3284	36.6211	51.9529	36.6211	55.8003	36.6211	52.8588	36.6211	56.1101	36.6211	53.7224	36.6211	56.2516	36.6211	54.4971	36.6211	56.2231	36.6211	55.1518	36.6211	56.0262	36.6211	55.6661
38.0859	51.0498	38.0859	51.1845	38.0859	50.8795	38.0859	51.2543	38.0859	50.7228	38.0859	51.2459	38.0859	50.6495	38.0859	51.1587	38.0859	50.7403	38.0859	51.0053	38.0859	51.0582	38.0859	50.8143	38.0859	51.6168	38.0859	50.6343	38.0859	52.3696	38.0859	50.5353	38.0859	53.2333	38.0859	50.5985	38.0859	54.1213	38.0859	50.8893	38.0859	54.9637	38.0859	51.424	38.0859	55.711	38.0859	52.159	38.0859	56.3308	38.0859	53.0132	38.0859	56.8025	38.0859	53.9012	38.0859	57.1137	38.0859	54.7536	38.0859	57.2576	38.0859	55.5212	38.0859	57.2319	38.0859	56.171	38.0859	57.0381	38.0859	56.6814
39.5508	52.0352	39.5508	52.1788	39.5508	51.8494	39.5508	52.2523	39.5508	51.6694	39.5508	52.243	39.5508	51.5655	39.5508	52.1509	39.5508	51.6213	39.5508	51.9885	39.5508	51.9061	39.5508	51.7836	39.5508	52.4399	39.5508	51.5843	39.5508	53.179	39.5508	51.4605	39.5508	54.0388	39.5508	51.4953	39.5508	54.9289	39.5508	51.7585	39.5508	55.7763	39.5508	52.2713	39.5508	56.5293	39.5508	52.9927	39.5508	57.1545	39.5508	53.8408	39.5508	57.6308	39.5508	54.7279	39.5508	57.9455	39.5508	55.582	39.5508	58.0918	39.5508	56.3521	39.5508	58.0674	39.5508	57.0043	39.5508	57.8739	39.5508	57.5164
41.0156	52.0726	41.0156	52.2061	41.0156	51.8885	41.0156	52.2559	41.0156	51.7117	41.0156	52.2071	41.0156	51.6283	41.0156	52.0596	41.0156	51.7382	41.0156	51.8276	41.0156	52.1171	41.0156	51.5455	41.0156	52.7714	41.0156	51.275	41.0156	53.6328	41.0156	51.1107	41.0156	54.5965	41.0156	51.1652	41.0156	55.5649	41.0156	51.524	41.0156	56.4661	41.0156	52.1927	41.0156	57.2535	41.0156	53.0916	41.0156	57.8984	41.0156	54.1042	41.0156	58.3834	41.0156	55.1262	41.0156	58.6983	41.0156	56.0842	41.0156	58.8376	41.0156	56.9319	41.0156	58.7991	41.0156	57.6415	41.0156	58.584	41.0156	58.1958
42.4805	53.9111	42.4805	54.008	42.4805	53.7938	42.4805	54.0558	42.4805	53.7023	42.4805	54.0414	42.4805	53.6985	42.4805	53.9654	42.4805	53.8481	42.4805	53.8419	42.4805	54.1978	42.4805	53.7005	42.4805	54.7518	42.4805	53.5883	42.4805	55.468	42.4805	53.5675	42.4805	56.2767	42.4805	53.7035	42.4805	57.1049	42.4805	54.042	42.4805	57.8917	42.4805	54.5868	42.4805	58.5924	42.4805	55.2959	42.4805	59.1762	42.4805	56.1008	42.4805	59.6228	42.4805	56.9302	42.4805	59.9194	42.4805	57.7249	42.4805	60.0586	42.4805	58.4412	42.4805	60.0379	42.4805	59.0484	42.4805	59.8585	42.4805	59.5256
43.9453	55.1164	43.9453	55.21	43.9453	55.0002	43.9453	55.2556	43.9453	54.9025	43.9453	55.2417	43.9453	54.8793	43.9453	55.1693	43.9453	54.9925	43.9453	55.0519	43.9453	55.2894	43.9453	54.9164	43.9453	55.7819	43.9453	54.8058	43.9453	56.4381	43.9453	54.7763	43.9453	57.1957	43.9453	54.8883	43.9453	57.9847	43.9453	55.1863	43.9453	58.7437	43.9453	55.6785	43.9453	59.426	43.9453	56.3317	43.9453	59.9987	43.9453	57.0848	43.9453	60.4395	43.9453	57.8704	43.9453	60.7346	43.9453	58.6302	43.9453	60.8758	43.9453	59.3193	43.9453	60.8601	43.9453	59.9059	43.9453	60.6889	43.9453	60.3675
45.4102	56.2878	45.4102	56.3793	45.4102	56.174	45.4102	56.4251	45.4102	56.0759	45.4102	56.4142	45.4102	56.0449	45.4102	56.3471	45.4102	56.1381	45.4102	56.2354	45.4102	56.4016	45.4102	56.1034	45.4102	56.8502	45.4102	55.9896	45.4102	57.4586	45.4102	55.9452	45.4102	58.1712	45.4102	56.027	45.4102	58.922	45.4102	56.2798	45.4102	59.6505	45.4102	56.7181	45.4102	60.3096	45.4102	57.317	45.4102	60.8648	45.4102	58.0227	45.4102	61.2929	45.4102	58.7712	45.4102	61.5789	45.4102	59.5039	45.4102	61.7141	45.4102	60.1747	45.4102	61.6952	45.4102	60.7496	45.4102	61.5234	45.4102	61.2047
46.875	57.562	46.875	57.6523	46.875	57.4464	46.875	57.6952	46.875	57.3408	46.875	57.6805	46.875	57.2938	46.875	57.6085	46.875	57.3604	46.875	57.4898	46.875	57.5872	46.875	57.3472	46.875	57.9932	46.875	57.2167	46.875	58.5594	46.875	57.1476	46.875	59.235	46.875	57.1956	46.875	59.9563	46.875	57.4076	46.875	60.6628	46.875	57.8028	46.875	61.3059	46.875	58.3624	46.875	61.8498	46.875	59.0365	46.875	62.2697	46.875	59.7621	46.875	62.5496	46.875	60.4798	46.875	62.6803	46.875	61.1416	46.875	62.6582	46.875	61.7118	46.875	62.4845	46.875	62.1652
48.3398	59.0207	48.3398	59.0945	48.3398	58.9238	48.3398	59.1251	48.3398	58.8361	48.3398	59.1033	48.3398	58.8018	48.3398	59.0301	48.3398	58.871	48.3398	58.9164	48.3398	59.0865	48.3398	58.7841	48.3398	59.4675	48.3398	58.6674	48.3398	59.9991	48.3398	58.612	48.3398	60.637	48.3398	58.6682	48.3398	61.3227	48.3398	58.878	48.3398	61.9989	48.3398	59.2583	48.3398	62.6177	48.3398	59.7923	48.3398	63.1433	48.3398	60.4349	48.3398	63.5502	48.3398	61.1286	48.3398	63.822	48.3398	61.8175	48.3398	63.9489	48.3398	62.4554	48.3398	63.9269	48.3398	63.0071	48.3398	63.7576	48.3398	63.447
51.2695	62.302	51.2695	62.3605	51.2695	62.2272	51.2695	62.3863	51.2695	62.1616	51.2695	62.3717	51.2695	62.1391	51.2695	62.317	51.2695	62.1981	51.2695	62.2305	51.2695	62.3724	51.2695	62.129	51.2695	62.6802	51.2695	62.0386	51.2695	63.1154	51.2695	61.9938	51.2695	63.6483	51.2695	62.0332	51.2695	64.2337	51.2695	62.1913	51.2695	64.8229	51.2695	62.4868	51.2695	65.3715	51.2695	62.9143	51.2695	65.8437	51.2695	63.4451	51.2695	66.2127	51.2695	64.0349	51.2695	66.4602	51.2695	64.6357	51.2695	66.575	51.2695	65.2037	51.2695	66.5525	51.2695	65.7031	51.2695	66.3939	51.2695	66.1065
52.7344	63.8794	52.7344	63.9368	52.7344	63.8019	52.7344	63.96	52.7344	63.7271	52.7344	63.9423	52.7344	63.6854	52.7344	63.8843	52.7344	63.7124	52.7344	63.7935	52.7344	63.8418	52.7344	63.6853	52.7344	64.0948	52.7344	63.5832	52.7344	64.4717	52.7344	63.519	52.7344	64.9491	52.7344	63.5289	52.7344	65.4871	52.7344	63.6467	52.7344	66.0387	52.7344	63.8933	52.7344	66.5594	52.7344	64.2685	52.7344	67.0121	52.7344	64.7488	52.7344	67.3684	52.7344	65.2944	52.7344	67.6085	52.7344	65.8591	52.7344	67.7205	52.7344	66.3994	52.7344	67.6991	52.7344	66.8783	52.7344	67.5456	52.7344	67.2674
54.1992	65.1358	54.1992	65.1913	54.1992	65.0597	54.1992	65.2126	54.1992	64.9846	54.1992	65.1937	54.1992	64.9397	54.1992	65.1351	54.1992	64.9593	54.1992	65.0446	54.1992	65.0762	54.1992	64.9369	54.1992	65.3118	54.1992	64.835	54.1992	65.6678	54.1992	64.7691	54.1992	66.1234	54.1992	64.774	54.1992	66.6407	54.1992	64.882	54.1992	67.1743	54.1992	65.1138	54.1992	67.6806	54.1992	65.4701	54.1992	68.1223	54.1992	65.9295	54.1992	68.4708	54.1992	66.4546	54.1992	68.7063	54.1992	67.0009	54.1992	68.8162	54.1992	67.5258	54.1992	68.7954	54.1992	67.9927	54.1992	68.6451	54.1992	68.3728
55.6641	66.4018	55.6641	66.4502	55.6641	66.3358	55.6641	66.4684	55.6641	66.2717	55.6641	66.4509	55.6641	66.2359	55.6641	66.3982	55.6641	66.259	55.6641	66.3174	55.6641	66.3703	55.6641	66.222	55.6641	66.5897	55.6641	66.1326	55.6641	66.9196	55.6641	66.0766	55.6641	67.3427	55.6641	66.0849	55.6641	67.8257	55.6641	66.1865	55.6641	68.3271	55.6641	66.4008	55.6641	68.8056	55.6641	66.7297	55.6641	69.2253	55.6641	67.1555	55.6641	69.5578	55.6641	67.6453	55.6641	69.783	55.6641	68.1586	55.6641	69.8881	55.6641	68.655	55.6641	69.8678	55.6641	69.0991	55.6641	69.7233	55.6641	69.4623
58.5938	68.4849	58.5938	68.5319	58.5938	68.4163	58.5938	68.5476	58.5938	68.3428	58.5938	68.5279	58.5938	68.2872	58.5938	68.4741	58.5938	68.2779	58.5938	68.393	58.5938	68.3439	58.5938	68.2967	58.5938	68.5075	58.5938	68.2033	58.5938	68.7767	58.5938	68.1367	58.5938	69.1408	58.5938	68.1244	58.5938	69.5715	58.5938	68.1931	58.5938	70.0302	58.5938	68.3621	58.5938	70.4763	58.5938	68.6368	58.5938	70.8729	58.5938	69.005	58.5938	71.1903	58.5938	69.4393	58.5938	71.4071	58.5938	69.9036	58.5938	71.5099	58.5938	70.3596	58.5938	71.4929	58.5938	70.7722	58.5938	71.3576	58.5938	71.1122
60.0586	69.6052	60.0586	69.6472	60.0586	69.543	60.0586	69.6597	60.0586	69.4756	60.0586	69.6391	60.0586	69.4247	60.0586	69.5868	60.0586	69.4161	60.0586	69.5094	60.0586	69.4768	60.0586	69.4183	60.0586	69.6276	60.0586	69.3306	60.0586	69.8769	60.0586	69.2682	60.0586	70.2155	60.0586	69.2562	60.0586	70.6183	60.0586	69.3193	60.0586	71.0498	60.0586	69.4754	60.0586	71.4714	60.0586	69.7301	60.0586	71.8479	60.0586	70.0731	60.0586	72.15	60.0586	70.4802	60.0586	72.3564	60.0586	70.918	60.0586	72.4538	60.0586	71.3504	60.0586	72.4364	60.0586	71.7437	60.0586	72.3054	60.0586	72.0694
62.9883	71.49	62.9883	71.5205	62.9883	71.4464	62.9883	71.5298	62.9883	71.4025	62.9883	71.5147	62.9883	71.3761	62.9883	71.4763	62.9883	71.3883	62.9883	71.4202	62.9883	71.46	62.9883	71.3561	62.9883	71.6074	62.9883	71.2979	62.9883	71.8368	62.9883	71.2631	62.9883	72.1408	62.9883	71.2715	62.9883	72.4993	62.9883	71.3422	62.9883	72.8832	62.9883	71.489	62.9883	73.2597	62.9883	71.7169	62.9883	73.5972	62.9883	72.0187	62.9883	73.8691	62.9883	72.3759	62.9883	74.0552	62.9883	72.7616	62.9883	74.1425	62.9883	73.1454	62.9883	74.1255	62.9883	73.4974	62.9883	74.0056	62.9883	73.7912
64.4531	72.2855	64.4531	72.3061	64.4531	72.2549	64.4531	72.3098	64.4531	72.2253	64.4531	72.2937	64.4531	72.2115	64.4531	72.2585	64.4531	72.2308	64.4531	72.2086	64.4531	72.3006	64.4531	72.1523	64.4531	72.4348	64.4531	72.1014	64.4531	72.6392	64.4531	72.071	64.4531	72.909	64.4531	72.0782	64.4531	73.2282	64.4531	72.1398	64.4531	73.572	64.4531	72.2687	64.4531	73.9114	64.4531	72.4704	64.4531	74.2175	64.4531	72.7401	64.4531	74.4648	64.4531	73.0626	64.4531	74.6336	64.4531	73.4146	64.4531	74.711	64.4531	73.7685	64.4531	74.691	64.4531	74.0961	64.4531	74.5753	64.4531	74.372
67.3828	73.5775	67.3828	73.5888	67.3828	73.556	67.3828	73.5849	67.3828	73.5331	67.3828	73.5638	67.3828	73.5206	67.3828	73.5267	67.3828	73.5329	67.3828	73.4779	67.3828	73.5851	67.3828	73.4243	67.3828	73.6902	67.3828	73.3762	67.3828	73.855	67.3828	73.3462	67.3828	74.0779	67.3828	73.3487	67.3828	74.3473	67.3828	73.3979	67.3828	74.6431	67.3828	73.5048	67.3828	74.9398	67.3828	73.6751	67.3828	75.2109	67.3828	73.9056	67.3828	75.4322	67.3828	74.1846	67.3828	75.5842	67.3828	74.4926	67.3828	75.6541	67.3828	74.8056	67.3828	75.6357	67.3828	75.0982	67.3828	75.5304	67.3828	75.3464
