"SPL Vertical"																																																																							
"On-Axis"		"10°"		"-10°"		"20°"		"-20°"		"30°"		"-30°"		"40°"		"-40°"		"50°"		"-50°"		"60°"		"-60°"		"70°"		"-70°"		"80°"		"-80°"		"90°"		"-90°"		"100°"		"-100°"		"110°"		"-110°"		"120°"		"-120°"		"130°"		"-130°"		"140°"		"-140°"		"150°"		"-150°"		"160°"		"-160°"		"170°"		"-170°"		"180°"	
"Frequency [Hz]"	"Sound Pessure Level [dB]  / [2.83V 1m] "	"Frequency [Hz]"	"Sound Pessure Level [dB]  / [2.83V 1m] "	"Frequency [Hz]"	"Sound Pessure Level [dB]  / [2.83V 1m] "	"Frequency [Hz]"	"Sound Pessure Level [dB]  / [2.83V 1m] "	"Frequency [Hz]"	"Sound Pessure Level [dB]  / [2.83V 1m] "	"Frequency [Hz]"	"Sound Pessure Level [dB]  / [2.83V 1m] "	"Frequency [Hz]"	"Sound Pessure Level [dB]  / [2.83V 1m] "	"Frequency [Hz]"	"Sound Pessure Level [dB]  / [2.83V 1m] "	"Frequency [Hz]"	"Sound Pessure Level [dB]  / [2.83V 1m] "	"Frequency [Hz]"	"Sound Pessure Level [dB]  / [2.83V 1m] "	"Frequency [Hz]"	"Sound Pessure Level [dB]  / [2.83V 1m] "	"Frequency [Hz]"	"Sound Pessure Level [dB]  / [2.83V 1m] "	"Frequency [Hz]"	"Sound Pessure Level [dB]  / [2.83V 1m] "	"Frequency [Hz]"	"Sound Pessure Level [dB]  / [2.83V 1m] "	"Frequency [Hz]"	"Sound Pessure Level [dB]  / [2.83V 1m] "	"Frequency [Hz]"	"Sound Pessure Level [dB]  / [2.83V 1m] "	"Frequency [Hz]"	"Sound Pessure Level [dB]  / [2.83V 1m] "	"Frequency [Hz]"	"Sound Pessure Level [dB]  / [2.83V 1m] "	"Frequency [Hz]"	"Sound Pessure Level [dB]  / [2.83V 1m] "	"Frequency [Hz]"	"Sound Pessure Level [dB]  / [2.83V 1m] "	"Frequency [Hz]"	"Sound Pessure Level [dB]  / [2.83V 1m] "	"Frequency [Hz]"	"Sound Pessure Level [dB]  / [2.83V 1m] "	"Frequency [Hz]"	"Sound Pessure Level [dB]  / [2.83V 1m] "	"Frequency [Hz]"	"Sound Pessure Level [dB]  / [2.83V 1m] "	"Frequency [Hz]"	"Sound Pessure Level [dB]  / [2.83V 1m] "	"Frequency [Hz]"	"Sound Pessure Level [dB]  / [2.83V 1m] "	"Frequency [Hz]"	"Sound Pessure Level [dB]  / [2.83V 1m] "	"Frequency [Hz]"	"Sound Pessure Level [dB]  / [2.83V 1m] "	"Frequency [Hz]"	"Sound Pessure Level [dB]  / [2.83V 1m] "	"Frequency [Hz]"	"Sound Pessure Level [dB]  / [2.83V 1m] "	"Frequency [Hz]"	"Sound Pessure Level [dB]  / [2.83V 1m] "	"Frequency [Hz]"	"Sound Pessure Level [dB]  / [2.83V 1m] "	"Frequency [Hz]"	"Sound Pessure Level [dB]  / [2.83V 1m] "	"Frequency [Hz]"	"Sound Pessure Level [dB]  / [2.83V 1m] "	"Frequency [Hz]"	"Sound Pessure Level [dB]  / [2.83V 1m] "	"Frequency [Hz]"	"Sound Pessure Level [dB]  / [2.83V 1m] "
20.5078	60.4671	20.5078	60.3535	20.5078	60.5851	20.5078	60.2473	20.5078	60.7041	20.5078	60.1512	20.5078	60.8204	20.5078	60.0673	20.5078	60.9302	20.5078	59.9976	20.5078	61.0293	20.5078	59.9433	20.5078	61.1141	20.5078	59.9056	20.5078	61.1809	20.5078	59.8851	20.5078	61.2267	20.5078	59.8822	20.5078	61.2495	20.5078	59.897	20.5078	61.2479	20.5078	59.9293	20.5078	61.2219	20.5078	59.9785	20.5078	61.1724	20.5078	60.0438	20.5078	61.1017	20.5078	60.1239	20.5078	61.0127	20.5078	60.2173	20.5078	60.9093	20.5078	60.3219	20.5078	60.7955	20.5078	60.4353	20.5078	60.6758	20.5078	60.5545
21.2402	58.9541	21.2402	58.8486	21.2402	59.0599	21.2402	58.7463	21.2402	59.1624	21.2402	58.6504	21.2402	59.2581	21.2402	58.5633	21.2402	59.3436	21.2402	58.4871	21.2402	59.4154	21.2402	58.4238	21.2402	59.4707	21.2402	58.3747	21.2402	59.5071	21.2402	58.3409	21.2402	59.523	21.2402	58.3229	21.2402	59.5178	21.2402	58.3211	21.2402	59.4917	21.2402	58.3354	21.2402	59.446	21.2402	58.3654	21.2402	59.3829	21.2402	58.4103	21.2402	59.3049	21.2402	58.4689	21.2402	59.2155	21.2402	58.54	21.2402	59.118	21.2402	58.6219	21.2402	59.0159	21.2402	58.7128	21.2402	58.9123	21.2402	58.8104
21.9727	60.4746	21.9727	60.3572	21.9727	60.5928	21.9727	60.2437	21.9727	60.7081	21.9727	60.1371	21.9727	60.8169	21.9727	60.0399	21.9727	60.9153	21.9727	59.9544	21.9727	60.9996	21.9727	59.8824	21.9727	61.0664	21.9727	59.8254	21.9727	61.1126	21.9727	59.7846	21.9727	61.1358	21.9727	59.7609	21.9727	61.1348	21.9727	59.755	21.9727	61.1091	21.9727	59.7669	21.9727	61.0595	21.9727	59.7968	21.9727	60.988	21.9727	59.8443	21.9727	60.8975	21.9727	59.9086	21.9727	60.7917	21.9727	59.9887	21.9727	60.6751	21.9727	60.083	21.9727	60.5522	21.9727	60.1894	21.9727	60.4275	21.9727	60.3053
22.7051	60.4766	22.7051	60.3639	22.7051	60.5877	22.7051	60.2528	22.7051	60.6939	22.7051	60.1462	22.7051	60.7915	22.7051	60.0468	22.7051	60.877	22.7051	59.9567	22.7051	60.9467	22.7051	59.8778	22.7051	60.9977	22.7051	59.8119	22.7051	61.0271	22.7051	59.7602	22.7051	61.0333	22.7051	59.7238	22.7051	61.0153	22.7051	59.7035	22.7051	60.9735	22.7051	59.6999	22.7051	60.9092	22.7051	59.7134	22.7051	60.8251	22.7051	59.744	22.7051	60.7246	22.7051	59.7916	22.7051	60.6121	22.7051	59.8556	22.7051	60.4922	22.7051	59.9351	22.7051	60.3696	22.7051	60.0286	22.7051	60.2489	22.7051	60.1341
23.4375	60.9825	23.4375	60.8786	23.4375	61.0848	23.4375	60.7761	23.4375	61.1821	23.4375	60.6779	23.4375	61.2711	23.4375	60.5863	23.4375	61.3483	23.4375	60.5035	23.4375	61.4104	23.4375	60.4313	23.4375	61.4545	23.4375	60.3711	23.4375	61.4783	23.4375	60.3241	23.4375	61.4803	23.4375	60.2912	23.4375	61.46	23.4375	60.2729	23.4375	61.4179	23.4375	60.2697	23.4375	61.3557	23.4375	60.2817	23.4375	61.2761	23.4375	60.3088	23.4375	61.1826	23.4375	60.3507	23.4375	61.0793	23.4375	60.4069	23.4375	60.9706	23.4375	60.4766	23.4375	60.8605	23.4375	60.5587	23.4375	60.7531	23.4375	60.6515
24.1699	61.208	24.1699	61.0984	24.1699	61.3154	24.1699	60.9896	24.1699	61.417	24.1699	60.8848	24.1699	61.5092	24.1699	60.7865	24.1699	61.5886	24.1699	60.6972	24.1699	61.6519	24.1699	60.6188	24.1699	61.6961	24.1699	60.553	24.1699	61.719	24.1699	60.5013	24.1699	61.7191	24.1699	60.4646	24.1699	61.6961	24.1699	60.4437	24.1699	61.6505	24.1699	60.439	24.1699	61.5843	24.1699	60.4509	24.1699	61.5002	24.1699	60.4791	24.1699	61.4018	24.1699	60.5234	24.1699	61.2932	24.1699	60.5831	24.1699	61.1789	24.1699	60.6572	24.1699	61.0632	24.1699	60.7443	24.1699	60.9499	24.1699	60.8427
25.6348	62.2293	25.6348	62.1186	25.6348	62.3375	25.6348	62.0087	25.6348	62.4398	25.6348	61.9025	25.6348	62.5325	25.6348	61.8027	25.6348	62.6122	25.6348	61.7116	25.6348	62.6754	25.6348	61.6314	25.6348	62.7193	25.6348	61.5636	25.6348	62.7415	25.6348	61.5096	25.6348	62.7405	25.6348	61.4707	25.6348	62.7158	25.6348	61.4475	25.6348	62.6681	25.6348	61.4407	25.6348	62.5993	25.6348	61.4504	25.6348	62.5122	25.6348	61.4768	25.6348	62.4106	25.6348	61.5196	25.6348	62.2988	25.6348	61.5783	25.6348	62.1814	25.6348	61.6519	25.6348	62.0629	25.6348	61.7392	25.6348	61.9474	25.6348	61.8385
26.3672	62.8725	26.3672	62.758	26.3672	62.9846	26.3672	62.6444	26.3672	63.0907	26.3672	62.5347	26.3672	63.1872	26.3672	62.4316	26.3672	63.2704	26.3672	62.3375	26.3672	63.3369	26.3672	62.2546	26.3672	63.3836	26.3672	62.1845	26.3672	63.4081	26.3672	62.1289	26.3672	63.4086	26.3672	62.0887	26.3672	63.3847	26.3672	62.065	26.3672	63.3367	26.3672	62.0582	26.3672	63.2666	26.3672	62.0687	26.3672	63.1771	26.3672	62.0965	26.3672	63.0721	26.3672	62.1414	26.3672	62.9561	26.3672	62.2029	26.3672	62.8339	26.3672	62.2801	26.3672	62.7102	26.3672	62.3716	26.3672	62.5895	26.3672	62.4755
27.0996	63.2694	27.0996	63.1563	27.0996	63.3799	27.0996	63.044	27.0996	63.4843	27.0996	62.9355	27.0996	63.579	27.0996	62.8334	27.0996	63.6605	27.0996	62.7403	27.0996	63.7252	27.0996	62.6581	27.0996	63.7702	27.0996	62.5887	27.0996	63.7931	27.0996	62.5335	27.0996	63.7922	27.0996	62.4935	27.0996	63.7671	27.0996	62.4697	27.0996	63.7184	27.0996	62.4625	27.0996	63.6479	27.0996	62.4723	27.0996	63.5585	27.0996	62.499	27.0996	63.4542	27.0996	62.5425	27.0996	63.3394	27.0996	62.6022	27.0996	63.2189	27.0996	62.6772	27.0996	63.0973	27.0996	62.7663	27.0996	62.979	27.0996	62.8676
27.832	63.7	27.832	63.582	27.832	63.8155	27.832	63.465	27.832	63.9251	27.832	63.352	27.832	64.0252	27.832	63.2458	27.832	64.1121	27.832	63.1488	27.832	64.1822	27.832	63.0633	27.832	64.2325	27.832	62.991	27.832	64.2604	27.832	62.9336	27.832	64.2642	27.832	62.8924	27.832	64.2429	27.832	62.8683	27.832	64.1971	27.832	62.8622	27.832	64.1282	27.832	62.8743	27.832	64.0389	27.832	62.9049	27.832	63.9327	27.832	62.9538	27.832	63.8142	27.832	63.0203	27.832	63.6881	27.832	63.1033	27.832	63.5594	27.832	63.2013	27.832	63.4326	27.832	63.312
29.2969	64.397	29.2969	64.2817	29.2969	64.5093	29.2969	64.1666	29.2969	64.615	29.2969	64.0548	29.2969	64.7104	29.2969	63.9492	29.2969	64.7921	29.2969	63.8521	29.2969	64.8565	29.2969	63.7659	29.2969	64.9007	29.2969	63.6924	29.2969	64.9223	29.2969	63.6331	29.2969	64.9198	29.2969	63.5894	29.2969	64.8926	29.2969	63.5622	29.2969	64.8415	29.2969	63.5523	29.2969	64.7681	29.2969	63.56	29.2969	64.6756	29.2969	63.5855	29.2969	64.5677	29.2969	63.6287	29.2969	64.4492	29.2969	63.6891	29.2969	64.3247	29.2969	63.7657	29.2969	64.1991	29.2969	63.8573	29.2969	64.0768	29.2969	63.9618
30.0293	64.9305	30.0293	64.8115	30.0293	65.0475	30.0293	64.6937	30.0293	65.1588	30.0293	64.5803	30.0293	65.2607	30.0293	64.4742	30.0293	65.3496	30.0293	64.3777	30.0293	65.4219	30.0293	64.2932	30.0293	65.4744	30.0293	64.2225	30.0293	65.5046	30.0293	64.1671	30.0293	65.5107	30.0293	64.1283	30.0293	65.4918	30.0293	64.107	30.0293	65.4483	30.0293	64.1038	30.0293	65.3816	30.0293	64.1191	30.0293	65.2943	30.0293	64.1529	30.0293	65.19	30.0293	64.2048	30.0293	65.073	30.0293	64.2741	30.0293	64.9479	30.0293	64.3596	30.0293	64.8197	30.0293	64.4595	30.0293	64.6928	30.0293	64.5716
31.4941	65.5261	31.4941	65.4113	31.4941	65.6377	31.4941	65.2969	31.4941	65.7428	31.4941	65.1859	31.4941	65.8378	31.4941	65.081	31.4941	65.9191	31.4941	64.9849	31.4941	65.9832	31.4941	64.8997	31.4941	66.0274	31.4941	64.8273	31.4941	66.0494	31.4941	64.7693	31.4941	66.0475	31.4941	64.7269	31.4941	66.0215	31.4941	64.7013	31.4941	65.972	31.4941	64.693	31.4941	65.9008	31.4941	64.7024	31.4941	65.8108	31.4941	64.7296	31.4941	65.7057	31.4941	64.7743	31.4941	65.5898	31.4941	64.836	31.4941	65.4679	31.4941	64.9135	31.4941	65.3445	31.4941	65.0054	31.4941	65.2238	31.4941	65.1097
32.2266	65.9569	32.2266	65.8415	32.2266	66.0686	32.2266	65.7258	32.2266	66.1731	32.2266	65.6128	32.2266	66.2667	32.2266	65.5054	32.2266	66.346	32.2266	65.4062	32.2266	66.4076	32.2266	65.3174	32.2266	66.4486	32.2266	65.2409	32.2266	66.4666	32.2266	65.1785	32.2266	66.4604	32.2266	65.1315	32.2266	66.4295	32.2266	65.101	32.2266	66.3748	32.2266	65.0878	32.2266	66.2982	32.2266	65.0925	32.2266	66.2029	32.2266	65.1152	32.2266	66.0927	32.2266	65.156	32.2266	65.9724	32.2266	65.2143	32.2266	65.8467	32.2266	65.2893	32.2266	65.7204	32.2266	65.3796	32.2266	65.598	32.2266	65.4833
33.6914	66.5471	33.6914	66.4344	33.6914	66.6559	33.6914	66.3211	33.6914	66.7572	33.6914	66.2103	33.6914	66.8473	33.6914	66.105	33.6914	66.9228	33.6914	66.0078	33.6914	66.9804	33.6914	65.9208	33.6914	67.0172	33.6914	65.846	33.6914	67.0313	33.6914	65.785	33.6914	67.0213	33.6914	65.739	33.6914	66.9872	33.6914	65.7091	33.6914	66.9301	33.6914	65.6958	33.6914	66.8522	33.6914	65.6996	33.6914	66.7568	33.6914	65.7205	33.6914	66.6481	33.6914	65.7582	33.6914	66.5307	33.6914	65.8124	33.6914	66.4092	33.6914	65.8823	33.6914	66.2884	33.6914	65.9667	33.6914	66.1722	33.6914	66.064
34.4238	66.949	34.4238	66.8336	34.4238	67.0606	34.4238	66.7176	34.4238	67.1647	34.4238	66.6044	34.4238	67.2576	34.4238	66.4967	34.4238	67.3359	34.4238	66.3973	34.4238	67.3962	34.4238	66.3084	34.4238	67.4355	34.4238	66.232	34.4238	67.4518	34.4238	66.1697	34.4238	67.4436	34.4238	66.123	34.4238	67.4108	34.4238	66.0927	34.4238	67.3544	34.4238	66.0797	34.4238	67.2764	34.4238	66.0843	34.4238	67.1801	34.4238	66.1067	34.4238	67.0696	34.4238	66.1467	34.4238	66.9495	34.4238	66.2037	34.4238	66.8248	34.4238	66.2771	34.4238	66.7	34.4238	66.3654	34.4238	66.5796	34.4238	66.467
35.8887	67.6311	35.8887	67.5159	35.8887	67.7422	35.8887	67.4002	35.8887	67.8458	35.8887	67.2872	35.8887	67.9382	35.8887	67.1798	35.8887	68.0158	35.8887	67.0808	35.8887	68.0752	35.8887	66.9924	35.8887	68.1137	35.8887	66.9166	35.8887	68.1291	35.8887	66.8551	35.8887	68.1202	35.8887	66.8091	35.8887	68.0869	35.8887	66.7797	35.8887	68.0302	35.8887	66.7676	35.8887	67.9523	35.8887	66.7729	35.8887	67.8566	35.8887	66.7958	35.8887	67.7471	35.8887	66.836	35.8887	67.6285	35.8887	66.8929	35.8887	67.5055	35.8887	66.9657	35.8887	67.3826	35.8887	67.053	35.8887	67.264	35.8887	67.1532
37.3535	68.3204	37.3535	68.2036	37.3535	68.433	37.3535	68.0861	37.3535	68.5378	37.3535	67.9713	37.3535	68.631	37.3535	67.8621	37.3535	68.709	37.3535	67.7611	37.3535	68.7685	37.3535	67.6709	37.3535	68.8066	37.3535	67.5934	37.3535	68.8211	37.3535	67.5303	37.3535	68.8109	37.3535	67.483	37.3535	68.7758	37.3535	67.4523	37.3535	68.7169	37.3535	67.439	37.3535	68.6367	37.3535	67.4435	37.3535	68.5384	37.3535	67.4657	37.3535	68.4264	37.3535	67.5054	37.3535	68.3053	37.3535	67.562	37.3535	68.1801	37.3535	67.6348	37.3535	68.0553	37.3535	67.7225	37.3535	67.9353	37.3535	67.8234
38.8184	68.8358	38.8184	68.7203	38.8184	68.946	38.8184	68.6031	38.8184	69.0472	38.8184	68.4875	38.8184	69.1358	38.8184	68.3766	38.8184	69.208	38.8184	68.2732	38.8184	69.2607	38.8184	68.1798	38.8184	69.2912	38.8184	68.0984	38.8184	69.2975	38.8184	68.0308	38.8184	69.2787	38.8184	67.9783	38.8184	69.235	38.8184	67.942	38.8184	69.168	38.8184	67.9226	38.8184	69.0803	38.8184	67.9206	38.8184	68.9759	38.8184	67.9359	38.8184	68.8592	38.8184	67.9686	38.8184	68.7353	38.8184	68.0182	38.8184	68.6093	38.8184	68.0841	38.8184	68.4856	38.8184	68.1654	38.8184	68.3683	38.8184	68.2608
39.5508	69.2297	39.5508	69.1118	39.5508	69.3427	39.5508	68.9928	39.5508	69.447	39.5508	68.8759	39.5508	69.539	39.5508	68.7643	39.5508	69.6149	39.5508	68.6608	39.5508	69.6714	39.5508	68.5679	39.5508	69.7057	39.5508	68.4877	39.5508	69.7159	39.5508	68.422	39.5508	69.7007	39.5508	68.372	39.5508	69.6604	39.5508	68.3387	39.5508	69.5962	39.5508	68.3228	39.5508	69.5109	39.5508	68.3245	39.5508	69.4081	39.5508	68.3438	39.5508	69.2923	39.5508	68.3805	39.5508	69.1685	39.5508	68.4341	39.5508	69.0417	39.5508	68.5038	39.5508	68.9166	39.5508	68.5886	39.5508	68.7973	39.5508	68.6871
41.0156	69.9766	41.0156	69.8572	41.0156	70.0911	41.0156	69.7364	41.0156	70.1967	41.0156	69.6177	41.0156	70.2897	41.0156	69.5043	41.0156	70.3664	41.0156	69.399	41.0156	70.4234	41.0156	69.3043	41.0156	70.4579	41.0156	69.2224	41.0156	70.4678	41.0156	69.1552	41.0156	70.452	41.0156	69.104	41.0156	70.4105	41.0156	69.0697	41.0156	70.3449	41.0156	69.0531	41.0156	70.2577	41.0156	69.0544	41.0156	70.1527	41.0156	69.0737	41.0156	70.0347	41.0156	69.1106	41.0156	69.9087	41.0156	69.1646	41.0156	69.7798	41.0156	69.235	41.0156	69.6528	41.0156	69.3207	41.0156	69.5318	41.0156	69.4202
42.4805	70.2942	42.4805	70.1611	42.4805	70.4212	42.4805	70.0258	42.4805	70.538	42.4805	69.892	42.4805	70.6405	42.4805	69.7634	42.4805	70.7247	42.4805	69.643	42.4805	70.7872	42.4805	69.5339	42.4805	70.8249	42.4805	69.4386	42.4805	70.8354	42.4805	69.3593	42.4805	70.8175	42.4805	69.2978	42.4805	70.7713	42.4805	69.2555	42.4805	70.6979	42.4805	69.2334	42.4805	70.6003	42.4805	69.232	42.4805	70.4823	42.4805	69.2516	42.4805	70.349	42.4805	69.292	42.4805	70.2059	42.4805	69.3527	42.4805	70.0588	42.4805	69.4328	42.4805	69.9133	42.4805	69.5311	42.4805	69.7742	42.4805	69.6458
43.9453	70.8948	43.9453	70.7635	43.9453	71.0188	43.9453	70.6287	43.9453	71.1317	43.9453	70.4939	43.9453	71.2295	43.9453	70.3626	43.9453	71.3086	43.9453	70.2379	43.9453	71.3654	43.9453	70.1228	43.9453	71.3972	43.9453	70.0198	43.9453	71.4016	43.9453	69.9315	43.9453	71.3775	43.9453	69.8598	43.9453	71.3248	43.9453	69.8066	43.9453	71.245	43.9453	69.7734	43.9453	71.1407	43.9453	69.7613	43.9453	71.0159	43.9453	69.7711	43.9453	70.8757	43.9453	69.8033	43.9453	70.7259	43.9453	69.8577	43.9453	70.5724	43.9453	69.934	43.9453	70.4212	43.9453	70.0308	43.9453	70.2776	43.9453	70.1462
45.4102	71.4179	45.4102	71.2872	45.4102	71.5416	45.4102	71.1533	45.4102	71.6544	45.4102	71.0196	45.4102	71.7524	45.4102	70.8896	45.4102	71.8318	45.4102	70.7664	45.4102	71.8892	45.4102	70.6527	45.4102	71.9216	45.4102	70.5512	45.4102	71.9267	45.4102	70.4642	45.4102	71.9035	45.4102	70.3937	45.4102	71.8518	45.4102	70.3414	45.4102	71.7729	45.4102	70.3088	45.4102	71.6697	45.4102	70.2972	45.4102	71.546	45.4102	70.3073	45.4102	71.4069	45.4102	70.3395	45.4102	71.2581	45.4102	70.3939	45.4102	71.1056	45.4102	70.47	45.4102	70.9553	45.4102	70.5665	45.4102	70.8124	45.4102	70.6816
47.6074	72.2168	47.6074	72.091	47.6074	72.3369	47.6074	71.9632	47.6074	72.4475	47.6074	71.837	47.6074	72.5447	47.6074	71.7156	47.6074	72.625	47.6074	71.6021	47.6074	72.6849	47.6074	71.4992	47.6074	72.7217	47.6074	71.4094	47.6074	72.733	47.6074	71.3347	47.6074	72.7179	47.6074	71.2768	47.6074	72.6762	47.6074	71.2373	47.6074	72.6091	47.6074	71.2169	47.6074	72.5191	47.6074	71.2165	47.6074	72.4097	47.6074	71.2363	47.6074	72.2855	47.6074	71.2761	47.6074	72.1515	47.6074	71.3355	47.6074	72.013	47.6074	71.4136	47.6074	71.8752	47.6074	71.5089	47.6074	71.7426	47.6074	71.6194
49.0723	72.774	49.0723	72.6507	49.0723	72.8923	49.0723	72.526	49.0723	73.0017	49.0723	72.4034	49.0723	73.0987	49.0723	72.2861	49.0723	73.1795	49.0723	72.1773	49.0723	73.2408	49.0723	72.0795	49.0723	73.28	49.0723	71.9951	49.0723	73.2948	49.0723	71.9261	49.0723	73.2841	49.0723	71.8743	49.0723	73.2479	49.0723	71.8408	49.0723	73.1872	49.0723	71.8265	49.0723	73.1042	49.0723	71.8317	49.0723	73.0024	49.0723	71.8566	49.0723	72.8859	49.0723	71.9007	49.0723	72.7594	49.0723	71.9633	49.0723	72.6278	49.0723	72.0431	49.0723	72.4958	49.0723	72.1386	49.0723	72.3679	49.0723	72.2478
50.5371	73.2679	50.5371	73.1449	50.5371	73.3861	50.5371	73.0207	50.5371	73.4958	50.5371	72.8989	50.5371	73.5931	50.5371	72.7828	50.5371	73.6744	50.5371	72.6755	50.5371	73.7366	50.5371	72.5796	50.5371	73.7768	50.5371	72.4976	50.5371	73.7931	50.5371	72.4314	50.5371	73.7842	50.5371	72.3826	50.5371	73.7501	50.5371	72.3525	50.5371	73.692	50.5371	72.3416	50.5371	73.6121	50.5371	72.3503	50.5371	73.5137	50.5371	72.3784	50.5371	73.4008	50.5371	72.4254	50.5371	73.2779	50.5371	72.4902	50.5371	73.1497	50.5371	72.5715	50.5371	73.0207	50.5371	72.6675	50.5371	72.895	50.5371	72.7762
52.7344	73.9592	52.7344	73.8377	52.7344	74.0753	52.7344	73.7148	52.7344	74.1825	52.7344	73.5938	52.7344	74.2769	52.7344	73.478	52.7344	74.355	52.7344	73.3707	52.7344	74.4138	52.7344	73.2745	52.7344	74.4504	52.7344	73.1918	52.7344	74.4631	52.7344	73.1247	52.7344	74.4508	52.7344	73.0748	52.7344	74.4137	52.7344	73.0431	52.7344	74.3532	52.7344	73.0305	52.7344	74.2716	52.7344	73.0372	52.7344	74.1723	52.7344	73.063	52.7344	74.0594	52.7344	73.1074	52.7344	73.9374	52.7344	73.1694	52.7344	73.811	52.7344	73.2476	52.7344	73.6844	52.7344	73.3405	52.7344	73.5616	52.7344	73.446
54.1992	74.4555	54.1992	74.3359	54.1992	74.5695	54.1992	74.2144	54.1992	74.6742	54.1992	74.0945	54.1992	74.7658	54.1992	73.9795	54.1992	74.8409	54.1992	73.8725	54.1992	74.8963	54.1992	73.7761	54.1992	74.9295	54.1992	73.6929	54.1992	74.9386	54.1992	73.6248	54.1992	74.9227	54.1992	73.5733	54.1992	74.8822	54.1992	73.5397	54.1992	74.8186	54.1992	73.5246	54.1992	74.7343	54.1992	73.5283	54.1992	74.633	54.1992	73.5507	54.1992	74.519	54.1992	73.5914	54.1992	74.3968	54.1992	73.6493	54.1992	74.2712	54.1992	73.7235	54.1992	74.1464	54.1992	73.8123	54.1992	74.0262	54.1992	73.9139
56.3965	75.1615	56.3965	75.0406	56.3965	75.2769	56.3965	74.9179	56.3965	75.383	56.3965	74.7971	56.3965	75.476	56.3965	74.6814	56.3965	75.5523	56.3965	74.574	56.3965	75.6088	56.3965	74.4776	56.3965	75.6428	56.3965	74.3946	56.3965	75.6525	56.3965	74.327	56.3965	75.6371	56.3965	74.2763	56.3965	75.5967	56.3965	74.2437	56.3965	75.5329	56.3965	74.2297	56.3965	75.4483	56.3965	74.2345	56.3965	75.3466	56.3965	74.258	56.3965	75.2321	56.3965	74.2997	56.3965	75.1095	56.3965	74.3585	56.3965	74.9833	56.3965	74.4334	56.3965	74.8581	56.3965	74.5227	56.3965	74.7375	56.3965	74.6249
