"SPL Vertical"																																																																							
"On-Axis"		"10°"		"-10°"		"20°"		"-20°"		"30°"		"-30°"		"40°"		"-40°"		"50°"		"-50°"		"60°"		"-60°"		"70°"		"-70°"		"80°"		"-80°"		"90°"		"-90°"		"100°"		"-100°"		"110°"		"-110°"		"120°"		"-120°"		"130°"		"-130°"		"140°"		"-140°"		"150°"		"-150°"		"160°"		"-160°"		"170°"		"-170°"		"180°"	
"Frequency [Hz]"	"Sound Pessure Level [dB]  / [2.83V 1m] "	"Frequency [Hz]"	"Sound Pessure Level [dB]  / [2.83V 1m] "	"Frequency [Hz]"	"Sound Pessure Level [dB]  / [2.83V 1m] "	"Frequency [Hz]"	"Sound Pessure Level [dB]  / [2.83V 1m] "	"Frequency [Hz]"	"Sound Pessure Level [dB]  / [2.83V 1m] "	"Frequency [Hz]"	"Sound Pessure Level [dB]  / [2.83V 1m] "	"Frequency [Hz]"	"Sound Pessure Level [dB]  / [2.83V 1m] "	"Frequency [Hz]"	"Sound Pessure Level [dB]  / [2.83V 1m] "	"Frequency [Hz]"	"Sound Pessure Level [dB]  / [2.83V 1m] "	"Frequency [Hz]"	"Sound Pessure Level [dB]  / [2.83V 1m] "	"Frequency [Hz]"	"Sound Pessure Level [dB]  / [2.83V 1m] "	"Frequency [Hz]"	"Sound Pessure Level [dB]  / [2.83V 1m] "	"Frequency [Hz]"	"Sound Pessure Level [dB]  / [2.83V 1m] "	"Frequency [Hz]"	"Sound Pessure Level [dB]  / [2.83V 1m] "	"Frequency [Hz]"	"Sound Pessure Level [dB]  / [2.83V 1m] "	"Frequency [Hz]"	"Sound Pessure Level [dB]  / [2.83V 1m] "	"Frequency [Hz]"	"Sound Pessure Level [dB]  / [2.83V 1m] "	"Frequency [Hz]"	"Sound Pessure Level [dB]  / [2.83V 1m] "	"Frequency [Hz]"	"Sound Pessure Level [dB]  / [2.83V 1m] "	"Frequency [Hz]"	"Sound Pessure Level [dB]  / [2.83V 1m] "	"Frequency [Hz]"	"Sound Pessure Level [dB]  / [2.83V 1m] "	"Frequency [Hz]"	"Sound Pessure Level [dB]  / [2.83V 1m] "	"Frequency [Hz]"	"Sound Pessure Level [dB]  / [2.83V 1m] "	"Frequency [Hz]"	"Sound Pessure Level [dB]  / [2.83V 1m] "	"Frequency [Hz]"	"Sound Pessure Level [dB]  / [2.83V 1m] "	"Frequency [Hz]"	"Sound Pessure Level [dB]  / [2.83V 1m] "	"Frequency [Hz]"	"Sound Pessure Level [dB]  / [2.83V 1m] "	"Frequency [Hz]"	"Sound Pessure Level [dB]  / [2.83V 1m] "	"Frequency [Hz]"	"Sound Pessure Level [dB]  / [2.83V 1m] "	"Frequency [Hz]"	"Sound Pessure Level [dB]  / [2.83V 1m] "	"Frequency [Hz]"	"Sound Pessure Level [dB]  / [2.83V 1m] "	"Frequency [Hz]"	"Sound Pessure Level [dB]  / [2.83V 1m] "	"Frequency [Hz]"	"Sound Pessure Level [dB]  / [2.83V 1m] "	"Frequency [Hz]"	"Sound Pessure Level [dB]  / [2.83V 1m] "	"Frequency [Hz]"	"Sound Pessure Level [dB]  / [2.83V 1m] "	"Frequency [Hz]"	"Sound Pessure Level [dB]  / [2.83V 1m] "
20.5078	57.2074	20.5078	56.9163	20.5078	57.5013	20.5078	56.6344	20.5078	57.7898	20.5078	56.3653	20.5078	58.0627	20.5078	56.1107	20.5078	58.3087	20.5078	55.871	20.5078	58.5163	20.5078	55.6458	20.5078	58.6745	20.5078	55.4353	20.5078	58.7736	20.5078	55.2407	20.5078	58.8056	20.5078	55.0657	20.5078	58.7649	20.5078	54.9162	20.5078	58.6486	20.5078	54.8009	20.5078	58.4568	20.5078	54.7308	20.5078	58.1933	20.5078	54.7184	20.5078	57.8654	20.5078	54.7755	20.5078	57.4843	20.5078	54.9111	20.5078	57.0655	20.5078	55.1284	20.5078	56.6278	20.5078	55.4233	20.5078	56.193	20.5078	55.7842
21.2402	58.4481	21.2402	58.3014	21.2402	58.6147	21.2402	58.1773	21.2402	58.7957	21.2402	58.0752	21.2402	58.9826	21.2402	57.9925	21.2402	59.1651	21.2402	57.9252	21.2402	59.3318	21.2402	57.8693	21.2402	59.4716	21.2402	57.8215	21.2402	59.5751	21.2402	57.7798	21.2402	59.6348	21.2402	57.7437	21.2402	59.6463	21.2402	57.7148	21.2402	59.6081	21.2402	57.6961	21.2402	59.5221	21.2402	57.6922	21.2402	59.3932	21.2402	57.7081	21.2402	59.2285	21.2402	57.7491	21.2402	59.0374	21.2402	57.8198	21.2402	58.8305	21.2402	57.9228	21.2402	58.6187	21.2402	58.0583	21.2402	58.4132	21.2402	58.2236
21.9727	57.2479	21.9727	57.0094	21.9727	57.5097	21.9727	56.8013	21.9727	57.7835	21.9727	56.6263	21.9727	58.0553	21.9727	56.4827	21.9727	58.3094	21.9727	56.3657	21.9727	58.5307	21.9727	56.2694	21.9727	58.7055	21.9727	56.1875	21.9727	58.8227	21.9727	56.1156	21.9727	58.8747	21.9727	56.0514	21.9727	58.8576	21.9727	55.996	21.9727	58.7713	21.9727	55.9533	21.9727	58.6198	21.9727	55.9302	21.9727	58.4106	21.9727	55.9358	21.9727	58.1539	21.9727	55.9795	21.9727	57.8626	21.9727	56.0699	21.9727	57.5511	21.9727	56.2122	21.9727	57.2348	21.9727	56.4067	21.9727	56.9291	21.9727	56.6488
22.7051	58.2454	22.7051	57.9321	22.7051	58.5673	22.7051	57.6375	22.7051	58.8857	22.7051	57.3681	22.7051	59.1869	22.7051	57.1274	22.7051	59.4567	22.7051	56.9161	22.7051	59.6819	22.7051	56.7329	22.7051	59.8503	22.7051	56.5756	22.7051	59.9522	22.7051	56.4427	22.7051	59.9804	22.7051	56.3338	22.7051	59.9312	22.7051	56.2505	22.7051	59.8042	22.7051	56.1968	22.7051	59.6031	22.7051	56.1785	22.7051	59.3355	22.7051	56.2027	22.7051	59.0127	22.7051	56.2766	22.7051	58.6493	22.7051	56.4064	22.7051	58.2626	22.7051	56.5957	22.7051	57.8713	22.7051	56.8441	22.7051	57.4936	22.7051	57.1466
23.4375	60.0904	23.4375	59.8205	23.4375	60.3674	23.4375	59.5656	23.4375	60.6416	23.4375	59.3312	23.4375	60.9015	23.4375	59.1206	23.4375	61.1352	23.4375	58.9348	23.4375	61.3313	23.4375	58.7741	23.4375	61.4791	23.4375	58.6379	23.4375	61.5702	23.4375	58.5262	23.4375	61.5985	23.4375	58.44	23.4375	61.561	23.4375	58.3813	23.4375	61.4581	23.4375	58.3533	23.4375	61.2936	23.4375	58.3598	23.4375	61.0744	23.4375	58.4049	23.4375	60.8107	23.4375	58.4924	23.4375	60.5148	23.4375	58.6245	23.4375	60.2001	23.4375	58.8017	23.4375	59.8808	23.4375	59.022	23.4375	59.5703	23.4375	59.2807
24.1699	61.209	24.1699	60.9842	24.1699	61.4431	24.1699	60.7758	24.1699	61.6774	24.1699	60.5881	24.1699	61.9013	24.1699	60.4233	24.1699	62.1033	24.1699	60.2815	24.1699	62.2722	24.1699	60.1616	24.1699	62.3976	24.1699	60.0619	24.1699	62.4711	24.1699	59.981	24.1699	62.4871	24.1699	59.9182	24.1699	62.4429	24.1699	59.8735	24.1699	62.3392	24.1699	59.8483	24.1699	62.1807	24.1699	59.8449	24.1699	61.9753	24.1699	59.8663	24.1699	61.7342	24.1699	59.9162	24.1699	61.4703	24.1699	59.998	24.1699	61.198	24.1699	60.1149	24.1699	60.9308	24.1699	60.2683	24.1699	60.6811	24.1699	60.4581
25.6348	62.9899	25.6348	62.7745	25.6348	63.2112	25.6348	62.5712	25.6348	63.4304	25.6348	62.3843	25.6348	63.6382	25.6348	62.2163	25.6348	63.8249	25.6348	62.0679	25.6348	63.9806	25.6348	61.9389	25.6348	64.0963	25.6348	61.8285	25.6348	64.1645	25.6348	61.7362	25.6348	64.1799	25.6348	61.6616	25.6348	64.1396	25.6348	61.6057	25.6348	64.0437	25.6348	61.5702	25.6348	63.8955	25.6348	61.5583	25.6348	63.7012	25.6348	61.5738	25.6348	63.4699	25.6348	61.6212	25.6348	63.2131	25.6348	61.7044	25.6348	62.9435	25.6348	61.8263	25.6348	62.6744	25.6348	61.9878	25.6348	62.4186	25.6348	62.187
26.3672	63.8093	26.3672	63.5968	26.3672	64.0253	26.3672	63.394	26.3672	64.2369	26.3672	63.2053	26.3672	64.4355	26.3672	63.0336	26.3672	64.6115	26.3672	62.8802	26.3672	64.7559	26.3672	62.7456	26.3672	64.86	26.3672	62.6299	26.3672	64.9172	26.3672	62.5331	26.3672	64.9227	26.3672	62.4557	26.3672	64.8744	26.3672	62.3987	26.3672	64.7732	26.3672	62.3644	26.3672	64.6232	26.3672	62.3554	26.3672	64.4311	26.3672	62.375	26.3672	64.2061	26.3672	62.4264	26.3672	63.9594	26.3672	62.5125	26.3672	63.7026	26.3672	62.6346	26.3672	63.4476	26.3672	62.7928	26.3672	63.2052	26.3672	62.9845
27.0996	65.0191	27.0996	64.8301	27.0996	65.212	27.0996	64.6504	27.0996	65.4021	27.0996	64.4839	27.0996	65.5813	27.0996	64.3328	27.0996	65.7409	27.0996	64.1982	27.0996	65.8724	27.0996	64.0802	27.0996	65.9678	27.0996	63.9786	27.0996	66.0204	27.0996	63.8934	27.0996	66.0256	27.0996	63.8249	27.0996	65.9812	27.0996	63.7739	27.0996	65.888	27.0996	63.7421	27.0996	65.7495	27.0996	63.7318	27.0996	65.5722	27.0996	63.7457	27.0996	65.365	27.0996	63.7869	27.0996	65.1387	27.0996	63.8579	27.0996	64.9047	27.0996	63.9608	27.0996	64.6743	27.0996	64.0962	27.0996	64.4576	27.0996	64.263
27.832	65.5866	27.832	65.3996	27.832	65.7752	27.832	65.2196	27.832	65.9588	27.832	65.0507	27.832	66.1297	27.832	64.8954	27.832	66.2796	27.832	64.7555	27.832	66.4006	27.832	64.6317	27.832	66.4852	27.832	64.5246	27.832	66.5274	27.832	64.4347	27.832	66.5233	27.832	64.3628	27.832	66.4715	27.832	64.3102	27.832	66.3731	27.832	64.2783	27.832	66.2325	27.832	64.2694	27.832	66.0564	27.832	64.2855	27.832	65.8538	27.832	64.3288	27.832	65.6348	27.832	64.4012	27.832	65.4102	27.832	64.5035	27.832	65.1901	27.832	64.6359	27.832	64.9833	27.832	64.7968
29.2969	67.4911	29.2969	67.3293	29.2969	67.6528	29.2969	67.1719	29.2969	67.8087	29.2969	67.0224	29.2969	67.9522	29.2969	66.883	29.2969	68.0761	29.2969	66.7552	29.2969	68.1735	29.2969	66.6397	29.2969	68.2378	29.2969	66.537	29.2969	68.2637	29.2969	66.4476	29.2969	68.2477	29.2969	66.372	29.2969	68.1884	29.2969	66.3115	29.2969	68.0873	29.2969	66.2677	29.2969	67.9484	29.2969	66.2426	29.2969	67.7782	29.2969	66.2389	29.2969	67.5852	29.2969	66.2593	29.2969	67.3794	29.2969	66.3064	29.2969	67.1712	29.2969	66.3823	29.2969	66.9704	29.2969	66.4881	29.2969	66.7856	29.2969	66.6233
30.0293	68.3082	30.0293	68.1588	30.0293	68.4577	30.0293	68.0139	30.0293	68.6021	30.0293	67.8765	30.0293	68.7354	30.0293	67.7488	30.0293	68.8508	30.0293	67.632	30.0293	68.9418	30.0293	67.5267	30.0293	69.0022	30.0293	67.4335	30.0293	69.0273	30.0293	67.3527	30.0293	69.0138	30.0293	67.2849	30.0293	68.9606	30.0293	67.2311	30.0293	68.8691	30.0293	67.1928	30.0293	68.7431	30.0293	67.1721	30.0293	68.5886	30.0293	67.1712	30.0293	68.4135	30.0293	67.1927	30.0293	68.2267	30.0293	67.2386	30.0293	68.0374	30.0293	67.3109	30.0293	67.8543	30.0293	67.4101	30.0293	67.6851	30.0293	67.5356
31.4941	69.754	31.4941	69.6206	31.4941	69.8862	31.4941	69.4899	31.4941	70.0126	31.4941	69.3649	31.4941	70.1276	31.4941	69.2476	31.4941	70.2253	31.4941	69.1393	31.4941	70.2997	31.4941	69.0409	31.4941	70.3456	31.4941	68.9529	31.4941	70.3586	31.4941	68.8759	31.4941	70.3363	31.4941	68.8107	31.4941	70.2779	31.4941	68.7582	31.4941	70.1855	31.4941	68.7196	31.4941	70.063	31.4941	68.6967	31.4941	69.9169	31.4941	68.6913	31.4941	69.7547	31.4941	68.7052	31.4941	69.585	31.4941	68.7403	31.4941	69.4163	31.4941	68.798	31.4941	69.256	31.4941	68.8792	31.4941	69.1103	31.4941	68.9838
32.2266	70.4492	32.2266	70.3228	32.2266	70.574	32.2266	70.1986	32.2266	70.6929	32.2266	70.0795	32.2266	70.8007	32.2266	69.9675	32.2266	70.8921	32.2266	69.8641	32.2266	70.9617	32.2266	69.7703	32.2266	71.0047	32.2266	69.6869	32.2266	71.0173	32.2266	69.6148	32.2266	70.9973	32.2266	69.5546	32.2266	70.9442	32.2266	69.5074	32.2266	70.8598	32.2266	69.4745	32.2266	70.7481	32.2266	69.457	32.2266	70.6145	32.2266	69.4566	32.2266	70.4661	32.2266	69.4746	32.2266	70.3105	32.2266	69.5124	32.2266	70.1551	32.2266	69.5709	32.2266	70.0065	32.2266	69.6505	32.2266	69.8704	32.2266	69.7508
33.6914	71.7909	33.6914	71.6738	33.6914	71.905	33.6914	71.5571	33.6914	72.012	33.6914	71.4436	33.6914	72.1073	33.6914	71.3356	33.6914	72.1859	33.6914	71.2346	33.6914	72.2433	33.6914	71.1419	33.6914	72.275	33.6914	71.0587	33.6914	72.278	33.6914	70.9858	33.6914	72.2504	33.6914	70.9243	33.6914	72.1924	33.6914	70.8753	33.6914	72.1058	33.6914	70.8397	33.6914	71.9949	33.6914	70.8189	33.6914	71.8652	33.6914	70.8141	33.6914	71.7235	33.6914	70.8265	33.6914	71.577	33.6914	70.8572	33.6914	71.4326	33.6914	70.9071	33.6914	71.2962	33.6914	70.9766	33.6914	71.1727	33.6914	71.0655
34.4238	72.3527	34.4238	72.2424	34.4238	72.4594	34.4238	72.1317	34.4238	72.5584	34.4238	72.0233	34.4238	72.6455	34.4238	71.9193	34.4238	72.7162	34.4238	71.8214	34.4238	72.7659	34.4238	71.7308	34.4238	72.7909	34.4238	71.6486	34.4238	72.7881	34.4238	71.5758	34.4238	72.756	34.4238	71.5134	34.4238	72.695	34.4238	71.4623	34.4238	72.6072	34.4238	71.4237	34.4238	72.4966	34.4238	71.3987	34.4238	72.3689	34.4238	71.3888	34.4238	72.2307	34.4238	71.3952	34.4238	72.089	34.4238	71.4192	34.4238	71.9504	34.4238	71.4618	34.4238	71.8207	34.4238	71.5236	34.4238	71.7045	34.4238	71.6048
35.8887	73.3826	35.8887	73.2804	35.8887	73.48	35.8887	73.1767	35.8887	73.5691	35.8887	73.074	35.8887	73.646	35.8887	72.9745	35.8887	73.7066	35.8887	72.88	35.8887	73.747	35.8887	72.7921	35.8887	73.7639	35.8887	72.7118	35.8887	73.755	35.8887	72.6405	35.8887	73.7192	35.8887	72.5792	35.8887	73.6571	35.8887	72.5289	35.8887	73.5712	35.8887	72.4908	35.8887	73.4656	35.8887	72.4661	35.8887	73.3457	35.8887	72.4557	35.8887	73.2176	35.8887	72.4607	35.8887	73.0876	35.8887	72.4821	35.8887	72.9616	35.8887	72.5206	35.8887	72.8442	35.8887	72.5765	35.8887	72.7394	35.8887	72.6496
37.3535	74.3372	37.3535	74.243	37.3535	74.4258	37.3535	74.146	37.3535	74.5052	37.3535	74.0489	37.3535	74.5721	37.3535	73.9538	37.3535	74.6227	37.3535	73.8627	37.3535	74.6538	37.3535	73.7772	37.3535	74.6625	37.3535	73.6987	37.3535	74.6469	37.3535	73.6285	37.3535	74.6065	37.3535	73.5679	37.3535	74.5423	37.3535	73.5178	37.3535	74.4569	37.3535	73.4794	37.3535	74.3544	37.3535	73.4536	37.3535	74.2402	37.3535	73.4414	37.3535	74.12	37.3535	73.4434	37.3535	73.9997	37.3535	73.4605	37.3535	73.8845	37.3535	73.493	37.3535	73.7785	37.3535	73.5413	37.3535	73.6848	37.3535	73.6054
38.8184	75.092	38.8184	75.0039	38.8184	75.1737	38.8184	74.9123	38.8184	75.2459	38.8184	74.8198	38.8184	75.3055	38.8184	74.7286	38.8184	75.3494	38.8184	74.6409	38.8184	75.3745	38.8184	74.5583	38.8184	75.3787	38.8184	74.4827	38.8184	75.3606	38.8184	74.4153	38.8184	75.32	38.8184	74.3576	38.8184	75.258	38.8184	74.3106	38.8184	75.1774	38.8184	74.2753	38.8184	75.0822	38.8184	74.2524	38.8184	74.9772	38.8184	74.2426	38.8184	74.8675	38.8184	74.2463	38.8184	74.7584	38.8184	74.2639	38.8184	74.6541	38.8184	74.2955	38.8184	74.5582	38.8184	74.341	38.8184	74.4731	38.8184	74.4004
39.5508	75.417	39.5508	75.3333	39.5508	75.4935	39.5508	75.2453	39.5508	75.5601	39.5508	75.1555	39.5508	75.6135	39.5508	75.0662	39.5508	75.6509	39.5508	74.9794	39.5508	75.6696	39.5508	74.897	39.5508	75.6674	39.5508	74.8207	39.5508	75.6432	39.5508	74.7519	39.5508	75.5972	39.5508	74.6918	39.5508	75.5306	39.5508	74.6418	39.5508	75.4464	39.5508	74.6027	39.5508	75.3487	39.5508	74.5753	39.5508	75.2426	39.5508	74.5603	39.5508	75.1332	39.5508	74.5582	39.5508	75.0257	39.5508	74.5695	39.5508	74.9245	39.5508	74.5944	39.5508	74.8327	39.5508	74.6333	39.5508	74.7529	39.5508	74.6862
41.0156	76.0919	41.0156	76.0192	41.0156	76.1574	41.0156	75.9421	41.0156	76.2133	41.0156	75.8629	41.0156	76.2567	41.0156	75.7838	41.0156	76.2852	41.0156	75.7067	41.0156	76.2965	41.0156	75.6335	41.0156	76.2891	41.0156	75.5659	41.0156	76.2623	41.0156	75.5051	41.0156	76.2164	41.0156	75.4525	41.0156	76.1534	41.0156	75.4089	41.0156	76.0761	41.0156	75.3751	41.0156	75.9886	41.0156	75.3516	41.0156	75.8957	41.0156	75.3387	41.0156	75.8019	41.0156	75.3365	41.0156	75.7116	41.0156	75.3452	41.0156	75.6281	41.0156	75.3648	41.0156	75.5537	41.0156	75.3953	41.0156	75.4898	41.0156	75.437
42.4805	76.3915	42.4805	76.3145	42.4805	76.4608	42.4805	76.2324	42.4805	76.5196	42.4805	76.1476	42.4805	76.5655	42.4805	76.0628	42.4805	76.5959	42.4805	75.9801	42.4805	76.609	42.4805	75.9018	42.4805	76.6033	42.4805	75.8299	42.4805	76.5784	42.4805	75.7661	42.4805	76.5347	42.4805	75.7119	42.4805	76.4741	42.4805	75.6684	42.4805	76.3992	42.4805	75.6367	42.4805	76.314	42.4805	75.617	42.4805	76.2226	42.4805	75.6096	42.4805	76.1296	42.4805	75.6143	42.4805	76.0387	42.4805	75.6307	42.4805	75.9531	42.4805	75.6586	42.4805	75.875	42.4805	75.6973	42.4805	75.8059	42.4805	75.7465
43.9453	76.8731	43.9453	76.8019	43.9453	76.935	43.9453	76.724	43.9453	76.9855	43.9453	76.6416	43.9453	77.0221	43.9453	76.5572	43.9453	77.043	43.9453	76.473	43.9453	77.0466	43.9453	76.3912	43.9453	77.0318	43.9453	76.314	43.9453	76.9986	43.9453	76.2432	43.9453	76.9476	43.9453	76.1806	43.9453	76.8809	43.9453	76.1277	43.9453	76.8012	43.9453	76.0858	43.9453	76.7123	43.9453	76.0557	43.9453	76.6182	43.9453	76.038	43.9453	76.5233	43.9453	76.0332	43.9453	76.4311	43.9453	76.0413	43.9453	76.3449	43.9453	76.0623	43.9453	76.2668	43.9453	76.0957	43.9453	76.1986	43.9453	76.1414
45.4102	77.1767	45.4102	77.11	45.4102	77.2333	45.4102	77.0358	45.4102	77.2778	45.4102	76.9562	45.4102	77.3081	45.4102	76.8736	45.4102	77.3224	45.4102	76.7904	45.4102	77.3195	45.4102	76.7089	45.4102	77.2986	45.4102	76.6311	45.4102	77.2601	45.4102	76.5592	45.4102	77.2049	45.4102	76.4949	45.4102	77.1353	45.4102	76.4399	45.4102	77.0543	45.4102	76.3954	45.4102	76.9658	45.4102	76.3624	45.4102	76.8738	45.4102	76.3417	45.4102	76.7823	45.4102	76.3336	45.4102	76.6946	45.4102	76.3382	45.4102	76.6135	45.4102	76.3553	45.4102	76.5408	45.4102	76.3846	45.4102	76.4779	45.4102	76.4256
47.6074	77.6179	47.6074	77.5574	47.6074	77.6678	47.6074	77.4885	47.6074	77.7051	47.6074	77.4136	47.6074	77.728	47.6074	77.3351	47.6074	77.7351	47.6074	77.2553	47.6074	77.7255	47.6074	77.1767	47.6074	77.699	47.6074	77.1014	47.6074	77.6562	47.6074	77.0316	47.6074	77.5985	47.6074	76.9691	47.6074	77.5285	47.6074	76.9155	47.6074	77.4493	47.6074	76.872	47.6074	77.3648	47.6074	76.8395	47.6074	77.2788	47.6074	76.8184	47.6074	77.1948	47.6074	76.8088	47.6074	77.1159	47.6074	76.8108	47.6074	77.044	47.6074	76.824	47.6074	76.9807	47.6074	76.8479	47.6074	76.9266	47.6074	76.8823
49.0723	77.8572	49.0723	77.8	49.0723	77.9032	49.0723	77.7337	49.0723	77.936	49.0723	77.6607	49.0723	77.954	49.0723	77.5835	49.0723	77.9559	49.0723	77.5045	49.0723	77.941	49.0723	77.4262	49.0723	77.9095	49.0723	77.3509	49.0723	77.8622	49.0723	77.2809	49.0723	77.8009	49.0723	77.2179	49.0723	77.7283	49.0723	77.1636	49.0723	77.6478	49.0723	77.1192	49.0723	77.5633	49.0723	77.0853	49.0723	77.4786	49.0723	77.0625	49.0723	77.3973	49.0723	77.0507	49.0723	77.3222	49.0723	77.0498	49.0723	77.2549	49.0723	77.0594	49.0723	77.1967	49.0723	77.0791	49.0723	77.1479	49.0723	77.1087
50.5371	78.077	50.5371	78.0216	50.5371	78.1205	50.5371	77.9564	50.5371	78.1503	50.5371	77.8836	50.5371	78.1647	50.5371	77.8059	50.5371	78.1628	50.5371	77.7256	50.5371	78.1441	50.5371	77.6454	50.5371	78.1088	50.5371	77.5676	50.5371	78.058	50.5371	77.4947	50.5371	77.9936	50.5371	77.4285	50.5371	77.9184	50.5371	77.3707	50.5371	77.8359	50.5371	77.3227	50.5371	77.7498	50.5371	77.2854	50.5371	77.664	50.5371	77.2593	50.5371	77.582	50.5371	77.2445	50.5371	77.5063	50.5371	77.2408	50.5371	77.4389	50.5371	77.2481	50.5371	77.3808	50.5371	77.266	50.5371	77.3325	50.5371	77.2942
52.7344	78.3598	52.7344	78.3091	52.7344	78.3982	52.7344	78.2481	52.7344	78.4226	52.7344	78.1792	52.7344	78.4316	52.7344	78.1048	52.7344	78.4246	52.7344	78.0276	52.7344	78.4014	52.7344	77.9502	52.7344	78.3625	52.7344	77.8751	52.7344	78.3096	52.7344	77.8048	52.7344	78.2448	52.7344	77.7412	52.7344	78.1712	52.7344	77.6861	52.7344	78.0923	52.7344	77.6407	52.7344	78.0118	52.7344	77.6058	52.7344	77.9334	52.7344	77.5817	52.7344	77.8599	52.7344	77.5682	52.7344	77.7933	52.7344	77.565	52.7344	77.7349	52.7344	77.5714	52.7344	77.6851	52.7344	77.587	52.7344	77.6439	52.7344	77.6112
54.1992	78.5542	54.1992	78.5046	54.1992	78.5911	54.1992	78.4443	54.1992	78.6136	54.1992	78.3756	54.1992	78.6204	54.1992	78.3011	54.1992	78.611	54.1992	78.2234	54.1992	78.5853	54.1992	78.1452	54.1992	78.5441	54.1992	78.0692	54.1992	78.4889	54.1992	77.9977	54.1992	78.4222	54.1992	77.9329	54.1992	78.347	54.1992	77.8764	54.1992	78.267	54.1992	77.8296	54.1992	78.1859	54.1992	77.7931	54.1992	78.1072	54.1992	77.7674	54.1992	78.0337	54.1992	77.7523	54.1992	77.9674	54.1992	77.7474	54.1992	77.9096	54.1992	77.7522	54.1992	77.8607	54.1992	77.7663	54.1992	77.8205	54.1992	77.7891
56.3965	78.7905	56.3965	78.7459	56.3965	78.8225	56.3965	78.6905	56.3965	78.8403	56.3965	78.6266	56.3965	78.843	56.3965	78.5569	56.3965	78.8302	56.3965	78.484	56.3965	78.8022	56.3965	78.4106	56.3965	78.7601	56.3965	78.3393	56.3965	78.7057	56.3965	78.2726	56.3965	78.6417	56.3965	78.2124	56.3965	78.5712	56.3965	78.1606	56.3965	78.4977	56.3965	78.118	56.3965	78.4246	56.3965	78.0855	56.3965	78.3549	56.3965	78.063	56.3965	78.291	56.3965	78.0502	56.3965	78.2343	56.3965	78.0466	56.3965	78.1853	56.3965	78.0514	56.3965	78.1441	56.3965	78.0639	56.3965	78.1103	56.3965	78.0836
