"SPL Horizontal"																																																																							
"On-Axis"		"10°"		"-10°"		"20°"		"-20°"		"30°"		"-30°"		"40°"		"-40°"		"50°"		"-50°"		"60°"		"-60°"		"70°"		"-70°"		"80°"		"-80°"		"90°"		"-90°"		"100°"		"-100°"		"110°"		"-110°"		"120°"		"-120°"		"130°"		"-130°"		"140°"		"-140°"		"150°"		"-150°"		"160°"		"-160°"		"170°"		"-170°"		"180°"	
"Frequency [Hz]"	"Sound Pessure Level [dB]  / [2.83V 1m] "	"Frequency [Hz]"	"Sound Pessure Level [dB]  / [2.83V 1m] "	"Frequency [Hz]"	"Sound Pessure Level [dB]  / [2.83V 1m] "	"Frequency [Hz]"	"Sound Pessure Level [dB]  / [2.83V 1m] "	"Frequency [Hz]"	"Sound Pessure Level [dB]  / [2.83V 1m] "	"Frequency [Hz]"	"Sound Pessure Level [dB]  / [2.83V 1m] "	"Frequency [Hz]"	"Sound Pessure Level [dB]  / [2.83V 1m] "	"Frequency [Hz]"	"Sound Pessure Level [dB]  / [2.83V 1m] "	"Frequency [Hz]"	"Sound Pessure Level [dB]  / [2.83V 1m] "	"Frequency [Hz]"	"Sound Pessure Level [dB]  / [2.83V 1m] "	"Frequency [Hz]"	"Sound Pessure Level [dB]  / [2.83V 1m] "	"Frequency [Hz]"	"Sound Pessure Level [dB]  / [2.83V 1m] "	"Frequency [Hz]"	"Sound Pessure Level [dB]  / [2.83V 1m] "	"Frequency [Hz]"	"Sound Pessure Level [dB]  / [2.83V 1m] "	"Frequency [Hz]"	"Sound Pessure Level [dB]  / [2.83V 1m] "	"Frequency [Hz]"	"Sound Pessure Level [dB]  / [2.83V 1m] "	"Frequency [Hz]"	"Sound Pessure Level [dB]  / [2.83V 1m] "	"Frequency [Hz]"	"Sound Pessure Level [dB]  / [2.83V 1m] "	"Frequency [Hz]"	"Sound Pessure Level [dB]  / [2.83V 1m] "	"Frequency [Hz]"	"Sound Pessure Level [dB]  / [2.83V 1m] "	"Frequency [Hz]"	"Sound Pessure Level [dB]  / [2.83V 1m] "	"Frequency [Hz]"	"Sound Pessure Level [dB]  / [2.83V 1m] "	"Frequency [Hz]"	"Sound Pessure Level [dB]  / [2.83V 1m] "	"Frequency [Hz]"	"Sound Pessure Level [dB]  / [2.83V 1m] "	"Frequency [Hz]"	"Sound Pessure Level [dB]  / [2.83V 1m] "	"Frequency [Hz]"	"Sound Pessure Level [dB]  / [2.83V 1m] "	"Frequency [Hz]"	"Sound Pessure Level [dB]  / [2.83V 1m] "	"Frequency [Hz]"	"Sound Pessure Level [dB]  / [2.83V 1m] "	"Frequency [Hz]"	"Sound Pessure Level [dB]  / [2.83V 1m] "	"Frequency [Hz]"	"Sound Pessure Level [dB]  / [2.83V 1m] "	"Frequency [Hz]"	"Sound Pessure Level [dB]  / [2.83V 1m] "	"Frequency [Hz]"	"Sound Pessure Level [dB]  / [2.83V 1m] "	"Frequency [Hz]"	"Sound Pessure Level [dB]  / [2.83V 1m] "	"Frequency [Hz]"	"Sound Pessure Level [dB]  / [2.83V 1m] "	"Frequency [Hz]"	"Sound Pessure Level [dB]  / [2.83V 1m] "	"Frequency [Hz]"	"Sound Pessure Level [dB]  / [2.83V 1m] "
20.5078	56.0831	20.5078	56.4354	20.5078	55.7151	20.5078	56.7614	20.5078	55.3428	20.5078	57.052	20.5078	54.9787	20.5078	57.2994	20.5078	54.636	20.5078	57.4969	20.5078	54.3278	20.5078	57.6396	20.5078	54.0663	20.5078	57.7242	20.5078	53.8621	20.5078	57.7493	20.5078	53.7232	20.5078	57.7153	20.5078	53.6543	20.5078	57.6245	20.5078	53.6566	20.5078	57.481	20.5078	53.728	20.5078	57.2901	20.5078	53.8631	20.5078	57.0581	20.5078	54.0546	20.5078	56.7918	20.5078	54.2932	20.5078	56.4982	20.5078	54.5691	20.5078	56.1846	20.5078	54.8726	20.5078	55.8579	20.5078	55.1942	20.5078	55.5253
23.4375	57.0707	23.4375	57.4979	23.4375	56.6208	23.4375	57.8898	23.4375	56.1623	23.4375	58.2358	23.4375	55.7109	23.4375	58.527	23.4375	55.2834	23.4375	58.7562	23.4375	54.8962	23.4375	58.918	23.4375	54.5643	23.4375	59.0086	23.4375	54.3	23.4375	59.0265	23.4375	54.1121	23.4375	58.9719	23.4375	54.0053	23.4375	58.8472	23.4375	53.981	23.4375	58.6566	23.4375	54.0375	23.4375	58.4062	23.4375	54.1706	23.4375	58.1033	23.4375	54.3741	23.4375	57.7565	23.4375	54.6401	23.4375	57.3753	23.4375	54.9592	23.4375	56.9697	23.4375	55.321	23.4375	56.5502	23.4375	55.7145	23.4375	56.128
26.3672	58.6811	26.3672	59.147	26.3672	58.1888	26.3672	59.5733	26.3672	57.6856	26.3672	59.9493	26.3672	57.189	26.3672	60.266	26.3672	56.7182	26.3672	60.5165	26.3672	56.2922	26.3672	60.6956	26.3672	55.9288	26.3672	60.8003	26.3672	55.6425	26.3672	60.8289	26.3672	55.4434	26.3672	60.7822	26.3672	55.3371	26.3672	60.6625	26.3672	55.3247	26.3672	60.4739	26.3672	55.4042	26.3672	60.222	26.3672	55.5704	26.3672	59.9135	26.3672	55.8157	26.3672	59.5561	26.3672	56.1301	26.3672	59.1582	26.3672	56.5012	26.3672	58.729	26.3672	56.9156	26.3672	58.2785	26.3672	57.3592	26.3672	57.8179
29.2969	59.7221	29.2969	60.2603	29.2969	59.1486	29.2969	60.7488	29.2969	58.5573	29.2969	61.1767	29.2969	57.9691	29.2969	61.535	29.2969	57.4076	29.2969	61.8173	29.2969	56.8975	29.2969	62.0188	29.2969	56.4617	29.2969	62.1365	29.2969	56.1189	29.2969	62.1694	29.2969	55.8814	29.2969	62.118	29.2969	55.7556	29.2969	61.9847	29.2969	55.7423	29.2969	61.7736	29.2969	55.8389	29.2969	61.4902	29.2969	56.0395	29.2969	61.1414	29.2969	56.335	29.2969	60.7348	29.2969	56.7133	29.2969	60.2792	29.2969	57.1588	29.2969	59.7844	29.2969	57.654	29.2969	59.2611	29.2969	58.1809	29.2969	58.7219
32.2266	60.6099	32.2266	61.2202	32.2266	59.9559	32.2266	61.7714	32.2266	59.2781	32.2266	62.2519	32.2266	58.6018	32.2266	62.6534	32.2266	57.9564	32.2266	62.9698	32.2266	57.373	32.2266	63.1972	32.2266	56.8804	32.2266	63.3333	32.2266	56.5006	32.2266	63.3776	32.2266	56.2466	32.2266	63.3311	32.2266	56.1227	32.2266	63.1966	32.2266	56.1278	32.2266	62.978	32.2266	56.2574	32.2266	62.6805	32.2266	56.5052	32.2266	62.3102	32.2266	56.8615	32.2266	61.874	32.2266	57.3119	32.2266	61.3796	32.2266	57.8377	32.2266	60.8358	32.2266	58.4168	32.2266	60.2532	32.2266	59.0264	32.2266	59.6448
35.1563	61.1531	35.1563	61.8957	35.1563	60.3409	35.1563	62.5549	35.1563	59.4799	35.1563	63.1214	35.1563	58.5999	35.1563	63.5894	35.1563	57.7404	35.1563	63.9552	35.1563	56.9483	35.1563	64.2165	35.1563	56.2715	35.1563	64.3725	35.1563	55.7491	35.1563	64.4235	35.1563	55.4035	35.1563	64.3711	35.1563	55.2403	35.1563	64.2177	35.1563	55.2553	35.1563	63.9672	35.1563	55.4411	35.1563	63.624	35.1563	55.7886	35.1563	63.1933	35.1563	56.2836	35.1563	62.681	35.1563	56.903	35.1563	62.0934	35.1563	57.6153	35.1563	61.4381	35.1563	58.3851	35.1563	60.7247	35.1563	59.1783	35.1563	59.9658
38.0859	61.7195	38.0859	62.6082	38.0859	60.7278	38.0859	63.3844	38.0859	59.6509	38.0859	64.0437	38.0859	58.5204	38.0859	64.5843	38.0859	57.3863	38.0859	65.0059	38.0859	56.3184	38.0859	65.309	38.0859	55.3972	38.0859	65.4946	38.0859	54.6931	38.0859	65.5641	38.0859	54.2436	38.0859	65.5196	38.0859	54.0511	38.0859	65.3638	38.0859	54.1019	38.0859	65.0997	38.0859	54.385	38.0859	64.7304	38.0859	54.8926	38.0859	64.2592	38.0859	55.605	38.0859	63.6892	38.0859	56.481	38.0859	63.0237	38.0859	57.463	38.0859	62.2664	38.0859	58.4913	38.0859	61.4226	38.0859	59.516	38.0859	60.501
41.0156	61.6657	41.0156	62.8365	41.0156	60.2929	41.0156	63.8231	41.0156	58.6969	41.0156	64.6399	41.0156	56.8551	41.0156	65.2981	41.0156	54.7503	41.0156	65.8059	41.0156	52.3892	41.0156	66.1698	41.0156	49.8497	41.0156	66.3948	41.0156	47.3746	41.0156	66.4846	41.0156	45.4498	41.0156	66.4425	41.0156	44.6043	41.0156	66.2711	41.0156	44.9976	41.0156	65.9725	41.0156	46.4229	41.0156	65.5475	41.0156	48.4997	41.0156	64.9959	41.0156	50.8173	41.0156	64.3157	41.0156	53.0902	41.0156	63.5021	41.0156	55.1844	41.0156	62.5478	41.0156	57.0592	41.0156	61.442	41.0156	58.7159	41.0156	60.1705
43.9453	62.9798	43.9453	64.1977	43.9453	61.5596	43.9453	65.2264	43.9453	59.9292	43.9453	66.0789	43.9453	58.0994	43.9453	66.7667	43.9453	56.1282	43.9453	67.2989	43.9453	54.1693	43.9453	67.6828	43.9453	52.4952	43.9453	67.9239	43.9453	51.3618	43.9453	68.0269	43.9453	50.7556	43.9453	67.9953	43.9453	50.4327	43.9453	67.8317	43.9453	50.238	43.9453	67.5381	43.9453	50.3059	43.9453	67.1149	43.9453	50.9898	43.9453	66.5611	43.9453	52.448	43.9453	65.8733	43.9453	54.3949	43.9453	65.0454	43.9453	56.4411	43.9453	64.0677	43.9453	58.3656	43.9453	62.9272	43.9453	60.0912	43.9453	61.6076
46.875	65.786	46.875	66.7065	46.875	64.8092	46.875	67.5351	46.875	63.8338	46.875	68.252	46.875	62.9388	46.875	68.8473	46.875	62.2076	46.875	69.3169	46.875	61.6931	46.875	69.6596	46.875	61.3863	46.875	69.8759	46.875	61.2224	46.875	69.9671	46.875	61.1175	46.875	69.935	46.875	61.0072	46.875	69.7815	46.875	60.8658	46.875	69.5087	46.875	60.7142	46.875	69.1185	46.875	60.6204	46.875	68.6125	46.875	60.6858	46.875	67.9927	46.875	61.006	46.875	67.2615	46.875	61.6156	46.875	66.4243	46.875	62.4651	46.875	65.4923	46.875	63.4555	46.875	64.4884
49.8047	69.6894	49.8047	70.2452	49.8047	69.147	49.8047	70.7813	49.8047	68.6535	49.8047	71.2713	49.8047	68.2397	49.8047	71.6954	49.8047	67.923	49.8047	72.04	49.8047	67.7014	49.8047	72.2964	49.8047	67.5546	49.8047	72.4594	49.8047	67.4525	49.8047	72.5265	49.8047	67.3659	49.8047	72.4975	49.8047	67.275	49.8047	72.3736	49.8047	67.1743	49.8047	72.1576	49.8047	67.075	49.8047	71.8537	49.8047	67.0035	49.8047	71.4674	49.8047	66.9967	49.8047	71.0067	49.8047	67.093	49.8047	70.4821	49.8047	67.319	49.8047	69.9093	49.8047	67.6797	49.8047	69.3097	49.8047	68.1561	49.8047	68.713
52.7344	73.2216	52.7344	73.5637	52.7344	72.8967	52.7344	73.9036	52.7344	72.6059	52.7344	74.2228	52.7344	72.3611	52.7344	74.5054	52.7344	72.1661	52.7344	74.7383	52.7344	72.0164	52.7344	74.9119	52.7344	71.9009	52.7344	75.0199	52.7344	71.8057	52.7344	75.0585	52.7344	71.7184	52.7344	75.0263	52.7344	71.6314	52.7344	74.9244	52.7344	71.5448	52.7344	74.7556	52.7344	71.4662	52.7344	74.5246	52.7344	71.4103	52.7344	74.238	52.7344	71.3963	52.7344	73.9048	52.7344	71.4432	52.7344	73.5362	52.7344	71.565	52.7344	73.1468	52.7344	71.7669	52.7344	72.7542	52.7344	72.0431	52.7344	72.3789
55.6641	76.2043	55.6641	76.426	55.6641	75.9916	55.6641	76.646	55.6641	75.7964	55.6641	76.8535	55.6641	75.624	55.6641	77.038	55.6641	75.476	55.6641	77.1905	55.6641	75.3503	55.6641	77.3036	55.6641	75.242	55.6641	77.3723	55.6641	75.1455	55.6641	77.3932	55.6641	75.0565	55.6641	77.365	55.6641	74.9734	55.6641	77.2883	55.6641	74.8986	55.6641	77.1653	55.6641	74.8386	55.6641	76.9995	55.6641	74.8028	55.6641	76.7962	55.6641	74.8019	55.6641	76.562	55.6641	74.8456	55.6641	76.3054	55.6641	74.94	55.6641	76.0365	55.6641	75.086	55.6641	75.7671	55.6641	75.2791	55.6641	75.5102
58.5938	78.617	58.5938	78.7668	58.5938	78.4661	58.5938	78.9093	58.5938	78.3191	58.5938	79.0384	58.5938	78.1797	58.5938	79.1483	58.5938	78.0497	58.5938	79.2336	58.5938	77.9296	58.5938	79.2902	58.5938	77.8185	58.5938	79.3154	58.5938	77.7152	58.5938	79.3075	58.5938	77.6195	58.5938	79.2662	58.5938	77.5323	58.5938	79.1923	58.5938	77.4569	58.5938	79.0877	58.5938	77.3983	58.5938	78.9552	58.5938	77.363	58.5938	78.7988	58.5938	77.3573	58.5938	78.6231	58.5938	77.3865	58.5938	78.4339	58.5938	77.4533	58.5938	78.2383	58.5938	77.5574	58.5938	78.0441	58.5938	77.6952	58.5938	77.8601
61.5234	80.3041	61.5234	80.413	61.5234	80.1869	61.5234	80.5098	61.5234	80.0648	61.5234	80.5912	61.5234	79.941	61.5234	80.6538	61.5234	79.8181	61.5234	80.6954	61.5234	79.6978	61.5234	80.7142	61.5234	79.582	61.5234	80.7093	61.5234	79.4721	61.5234	80.6806	61.5234	79.3702	61.5234	80.6289	61.5234	79.2792	61.5234	80.5555	61.5234	79.2028	61.5234	80.4622	61.5234	79.1456	61.5234	80.3512	61.5234	79.1121	61.5234	80.2254	61.5234	79.1062	61.5234	80.0877	61.5234	79.1303	61.5234	79.9419	61.5234	79.1848	61.5234	79.7923	61.5234	79.268	61.5234	79.6442	61.5234	79.3759	61.5234	79.5033
64.4531	81.4733	64.4531	81.5603	64.4531	81.3736	64.4531	81.6321	64.4531	81.2638	64.4531	81.6869	64.4531	81.1472	64.4531	81.7234	64.4531	81.0267	64.4531	81.7411	64.4531	80.9057	64.4531	81.74	64.4531	80.7874	64.4531	81.7206	64.4531	80.6754	64.4531	81.6839	64.4531	80.5733	64.4531	81.631	64.4531	80.4849	64.4531	81.5635	64.4531	80.4141	64.4531	81.4828	64.4531	80.3648	64.4531	81.3902	64.4531	80.3398	64.4531	81.2874	64.4531	80.341	64.4531	81.1762	64.4531	80.3689	64.4531	81.0587	64.4531	80.4221	64.4531	80.9377	64.4531	80.4978	64.4531	80.8167	64.4531	80.592	64.4531	80.6999
67.3828	82.2784	67.3828	82.3547	67.3828	82.1846	67.3828	82.4114	67.3828	82.076	67.3828	82.4475	67.3828	81.9558	67.3828	82.4629	67.3828	81.8283	67.3828	82.4583	67.3828	81.6978	67.3828	82.4348	67.3828	81.5689	67.3828	82.3946	67.3828	81.4464	67.3828	82.3396	67.3828	81.3351	67.3828	82.2722	67.3828	81.2394	67.3828	82.1946	67.3828	81.1633	67.3828	82.1084	67.3828	81.11	67.3828	82.0152	67.3828	81.0816	67.3828	81.9162	67.3828	81.0788	67.3828	81.8124	67.3828	81.101	67.3828	81.7055	67.3828	81.1463	67.3828	81.5972	67.3828	81.2117	67.3828	81.4902	67.3828	81.2935	67.3828	81.3877
70.3125	82.7066	70.3125	82.7815	70.3125	82.6139	70.3125	82.8367	70.3125	82.5062	70.3125	82.8716	70.3125	82.3874	70.3125	82.8864	70.3125	82.2619	70.3125	82.8822	70.3125	82.1349	70.3125	82.861	70.3125	82.012	70.3125	82.825	70.3125	81.8986	70.3125	82.7767	70.3125	81.7998	70.3125	82.7187	70.3125	81.72	70.3125	82.6529	70.3125	81.6624	70.3125	82.581	70.3125	81.629	70.3125	82.5039	70.3125	81.6204	70.3125	82.4222	70.3125	81.6356	70.3125	82.3362	70.3125	81.6723	70.3125	82.2465	70.3125	81.7276	70.3125	82.1541	70.3125	81.7978	70.3125	82.0604	70.3125	81.8791	70.3125	81.9678
73.2422	83.0262	73.2422	83.0963	73.2422	82.9366	73.2422	83.1453	73.2422	82.8304	73.2422	83.1729	73.2422	82.7116	73.2422	83.1798	73.2422	82.5856	73.2422	83.1679	73.2422	82.4583	73.2422	83.1398	73.2422	82.3361	73.2422	83.0989	73.2422	82.2256	73.2422	83.0484	73.2422	82.1327	73.2422	82.9917	73.2422	82.0623	73.2422	82.9314	73.2422	82.0178	73.2422	82.8694	73.2422	82.0002	73.2422	82.8068	73.2422	82.0088	73.2422	82.7434	73.2422	82.0407	73.2422	82.6786	73.2422	82.0918	73.2422	82.6114	73.2422	82.157	73.2422	82.5409	73.2422	82.2312	73.2422	82.4667	73.2422	82.3098	73.2422	82.3892
76.1719	83.3898	76.1719	83.4616	76.1719	83.2969	76.1719	83.5108	76.1719	83.1859	76.1719	83.537	76.1719	83.0612	76.1719	83.5414	76.1719	82.9285	76.1719	83.5259	76.1719	82.7943	76.1719	83.4937	76.1719	82.6657	76.1719	83.4481	76.1719	82.5496	76.1719	83.3929	76.1719	82.4526	76.1719	83.3317	76.1719	82.3797	76.1719	83.2675	76.1719	82.3341	76.1719	83.2023	76.1719	82.3168	76.1719	83.1372	76.1719	82.3266	76.1719	83.0721	76.1719	82.3602	76.1719	83.0062	76.1719	82.413	76.1719	82.9384	76.1719	82.4798	76.1719	82.8675	76.1719	82.5553	76.1719	82.793	76.1719	82.635	76.1719	82.715
79.1016	83.5824	79.1016	83.663	79.1016	83.4792	79.1016	83.7189	79.1016	83.3567	79.1016	83.7501	79.1016	83.2199	79.1016	83.7573	79.1016	83.0752	79.1016	83.743	79.1016	82.9301	79.1016	83.7102	79.1016	82.7929	79.1016	83.6628	79.1016	82.6716	79.1016	83.605	79.1016	82.5733	79.1016	83.5408	79.1016	82.5036	79.1016	83.4737	79.1016	82.4654	79.1016	83.4064	79.1016	82.459	79.1016	83.3403	79.1016	82.4819	79.1016	83.2755	79.1016	82.5294	79.1016	83.2111	79.1016	82.5955	79.1016	83.1456	79.1016	82.6736	79.1016	83.077	79.1016	82.7578	79.1016	83.0039	79.1016	82.843	79.1016	82.9257
82.0313	83.7025	82.0313	83.7885	82.0313	83.5931	82.0313	83.8493	82.0313	83.4634	82.0313	83.8849	82.0313	83.3185	82.0313	83.8962	82.0313	83.1648	82.0313	83.8855	82.0313	83.0102	82.0313	83.8559	82.0313	82.863	82.0313	83.8107	82.0313	82.7321	82.0313	83.7539	82.0313	82.6253	82.0313	83.689	82.0313	82.5486	82.0313	83.6193	82.0313	82.5058	82.0313	83.5472	82.0313	82.4972	82.0313	83.4744	82.0313	82.5207	82.0313	83.4013	82.0313	82.5712	82.0313	83.3276	82.0313	82.6422	82.0313	83.2522	82.0313	82.7269	82.0313	83.1738	82.0313	82.8186	82.0313	83.0911	82.0313	82.9122	82.0313	83.0037
84.9609	83.8352	84.9609	83.9115	84.9609	83.733	84.9609	83.9607	84.9609	83.6075	84.9609	83.9835	84.9609	83.4635	84.9609	83.9819	84.9609	83.3072	84.9609	83.9591	84.9609	83.1466	84.9609	83.9189	84.9609	82.9905	84.9609	83.8657	84.9609	82.8478	84.9609	83.8035	84.9609	82.7271	84.9609	83.7359	84.9609	82.6352	84.9609	83.6655	84.9609	82.5766	84.9609	83.5939	84.9609	82.5527	84.9609	83.5214	84.9609	82.5622	84.9609	83.4473	84.9609	82.6009	84.9609	83.3708	84.9609	82.6632	84.9609	83.2905	84.9609	82.7424	84.9609	83.2057	84.9609	82.8322	84.9609	83.1163	84.9609	82.9271	84.9609	83.0228
87.8906	83.8742	87.8906	83.9386	87.8906	83.7835	87.8906	83.9755	87.8906	83.6694	87.8906	83.9858	87.8906	83.5369	87.8906	83.9718	87.8906	83.3924	87.8906	83.9374	87.8906	83.2441	87.8906	83.8871	87.8906	83.1006	87.8906	83.8263	87.8906	82.9709	87.8906	83.7602	87.8906	82.8627	87.8906	83.6934	87.8906	82.7821	87.8906	83.629	87.8906	82.7329	87.8906	83.5688	87.8906	82.7157	87.8906	83.5126	87.8906	82.7286	87.8906	83.4587	87.8906	82.7673	87.8906	83.4046	87.8906	82.8261	87.8906	83.3476	87.8906	82.8987	87.8906	83.2853	87.8906	82.9788	87.8906	83.2165	87.8906	83.0611	87.8906	83.1413
90.8203	83.8183	90.8203	83.8847	90.8203	83.7269	90.8203	83.9247	90.8203	83.6138	90.8203	83.9391	90.8203	83.4842	90.8203	83.93	90.8203	83.3453	90.8203	83.9011	90.8203	83.2054	90.8203	83.8571	90.8203	83.0737	90.8203	83.8031	90.8203	82.959	90.8203	83.7446	90.8203	82.8687	90.8203	83.6863	90.8203	82.8083	90.8203	83.6322	90.8203	82.7801	90.8203	83.5839	90.8203	82.7834	90.8203	83.5415	90.8203	82.8148	90.8203	83.503	90.8203	82.8688	90.8203	83.4651	90.8203	82.939	90.8203	83.4241	90.8203	83.0185	90.8203	83.3768	90.8203	83.101	90.8203	83.3208	90.8203	83.1813	90.8203	83.2553
93.75	84.1224	93.75	84.2114	93.75	84.0074	93.75	84.2716	93.75	83.871	93.75	84.3019	93.75	83.7199	93.75	84.303	93.75	83.5622	93.75	84.2775	93.75	83.4075	93.75	84.2293	93.75	83.266	93.75	84.164	93.75	83.1471	93.75	84.0881	93.75	83.0591	93.75	84.0087	93.75	83.0071	93.75	83.9324	93.75	82.9927	93.75	83.8644	93.75	83.0138	93.75	83.8074	93.75	83.065	93.75	83.7612	93.75	83.1382	93.75	83.7231	93.75	83.2248	93.75	83.6882	93.75	83.3158	93.75	83.6511	93.75	83.404	93.75	83.6068	93.75	83.4836	93.75	83.5515
96.6797	84.1992	96.6797	84.2992	96.6797	84.0679	96.6797	84.3657	96.6797	83.9099	96.6797	84.3983	96.6797	83.7315	96.6797	84.3982	96.6797	83.5413	96.6797	84.3684	96.6797	83.3493	96.6797	84.3128	96.6797	83.1664	96.6797	84.2364	96.6797	83.0032	96.6797	84.1449	96.6797	82.8691	96.6797	84.0438	96.6797	82.7709	96.6797	83.9386	96.6797	82.7121	96.6797	83.8335	96.6797	82.6924	96.6797	83.7317	96.6797	82.7082	96.6797	83.6344	96.6797	82.7536	96.6797	83.5415	96.6797	82.8212	96.6797	83.4515	96.6797	82.9036	96.6797	83.3626	96.6797	82.9942	96.6797	83.2729	96.6797	83.0879	96.6797	83.1813
102.539	83.9847	102.539	84.0819	102.539	83.8584	102.539	84.1476	102.539	83.7077	102.539	84.1815	102.539	83.5395	102.539	84.185	102.539	83.3628	102.539	84.1615	102.539	83.1881	102.539	84.1152	102.539	83.0266	102.539	84.0515	102.539	82.8889	102.539	83.9765	102.539	82.7838	102.539	83.8961	102.539	82.7171	102.539	83.8158	102.539	82.6907	102.539	83.7395	102.539	82.703	102.539	83.6697	102.539	82.7487	102.539	83.6063	102.539	82.8204	102.539	83.5474	102.539	82.9093	102.539	83.4896	102.539	83.007	102.539	83.429	102.539	83.1058	102.539	83.3618	102.539	83.1999	102.539	83.2857
105.469	83.9731	105.469	84.0776	105.469	83.8362	105.469	84.1472	105.469	83.6719	105.469	84.1817	105.469	83.4877	105.469	84.1829	105.469	83.2935	105.469	84.1542	105.469	83.101	105.469	84.1004	105.469	82.9229	105.469	84.0273	105.469	82.7713	105.469	83.9413	105.469	82.6563	105.469	83.8488	105.469	82.5844	105.469	83.756	105.469	82.5576	105.469	83.6674	105.469	82.5732	105.469	83.5861	105.469	82.6246	105.469	83.5128	105.469	82.7025	105.469	83.4462	105.469	82.7969	105.469	83.3834	105.469	82.8983	105.469	83.3203	105.469	82.9987	105.469	83.2528	105.469	83.0928	105.469	83.1776
108.398	83.9901	108.398	84.0943	108.398	83.8514	108.398	84.1618	108.398	83.6831	108.398	84.1926	108.398	83.4924	108.398	84.189	108.398	83.2895	108.398	84.1546	108.398	83.0864	108.398	84.0946	108.398	82.8962	108.398	84.0151	108.398	82.7317	108.398	83.9228	108.398	82.604	108.398	83.8245	108.398	82.5205	108.398	83.7263	108.398	82.4839	108.398	83.6327	108.398	82.4922	108.398	83.5467	108.398	82.5389	108.398	83.4688	108.398	82.6149	108.398	83.3973	108.398	82.7096	108.398	83.3292	108.398	82.8131	108.398	83.2604	108.398	82.9172	108.398	83.1871	108.398	83.0159	108.398	83.1061
