"SPL Vertical"																																																																							
"On-Axis"		"10°"		"-10°"		"20°"		"-20°"		"30°"		"-30°"		"40°"		"-40°"		"50°"		"-50°"		"60°"		"-60°"		"70°"		"-70°"		"80°"		"-80°"		"90°"		"-90°"		"100°"		"-100°"		"110°"		"-110°"		"120°"		"-120°"		"130°"		"-130°"		"140°"		"-140°"		"150°"		"-150°"		"160°"		"-160°"		"170°"		"-170°"		"180°"	
"Frequency [Hz]"	"Sound Pessure Level [dB]  / [2.83V 1m] "	"Frequency [Hz]"	"Sound Pessure Level [dB]  / [2.83V 1m] "	"Frequency [Hz]"	"Sound Pessure Level [dB]  / [2.83V 1m] "	"Frequency [Hz]"	"Sound Pessure Level [dB]  / [2.83V 1m] "	"Frequency [Hz]"	"Sound Pessure Level [dB]  / [2.83V 1m] "	"Frequency [Hz]"	"Sound Pessure Level [dB]  / [2.83V 1m] "	"Frequency [Hz]"	"Sound Pessure Level [dB]  / [2.83V 1m] "	"Frequency [Hz]"	"Sound Pessure Level [dB]  / [2.83V 1m] "	"Frequency [Hz]"	"Sound Pessure Level [dB]  / [2.83V 1m] "	"Frequency [Hz]"	"Sound Pessure Level [dB]  / [2.83V 1m] "	"Frequency [Hz]"	"Sound Pessure Level [dB]  / [2.83V 1m] "	"Frequency [Hz]"	"Sound Pessure Level [dB]  / [2.83V 1m] "	"Frequency [Hz]"	"Sound Pessure Level [dB]  / [2.83V 1m] "	"Frequency [Hz]"	"Sound Pessure Level [dB]  / [2.83V 1m] "	"Frequency [Hz]"	"Sound Pessure Level [dB]  / [2.83V 1m] "	"Frequency [Hz]"	"Sound Pessure Level [dB]  / [2.83V 1m] "	"Frequency [Hz]"	"Sound Pessure Level [dB]  / [2.83V 1m] "	"Frequency [Hz]"	"Sound Pessure Level [dB]  / [2.83V 1m] "	"Frequency [Hz]"	"Sound Pessure Level [dB]  / [2.83V 1m] "	"Frequency [Hz]"	"Sound Pessure Level [dB]  / [2.83V 1m] "	"Frequency [Hz]"	"Sound Pessure Level [dB]  / [2.83V 1m] "	"Frequency [Hz]"	"Sound Pessure Level [dB]  / [2.83V 1m] "	"Frequency [Hz]"	"Sound Pessure Level [dB]  / [2.83V 1m] "	"Frequency [Hz]"	"Sound Pessure Level [dB]  / [2.83V 1m] "	"Frequency [Hz]"	"Sound Pessure Level [dB]  / [2.83V 1m] "	"Frequency [Hz]"	"Sound Pessure Level [dB]  / [2.83V 1m] "	"Frequency [Hz]"	"Sound Pessure Level [dB]  / [2.83V 1m] "	"Frequency [Hz]"	"Sound Pessure Level [dB]  / [2.83V 1m] "	"Frequency [Hz]"	"Sound Pessure Level [dB]  / [2.83V 1m] "	"Frequency [Hz]"	"Sound Pessure Level [dB]  / [2.83V 1m] "	"Frequency [Hz]"	"Sound Pessure Level [dB]  / [2.83V 1m] "	"Frequency [Hz]"	"Sound Pessure Level [dB]  / [2.83V 1m] "	"Frequency [Hz]"	"Sound Pessure Level [dB]  / [2.83V 1m] "	"Frequency [Hz]"	"Sound Pessure Level [dB]  / [2.83V 1m] "	"Frequency [Hz]"	"Sound Pessure Level [dB]  / [2.83V 1m] "	"Frequency [Hz]"	"Sound Pessure Level [dB]  / [2.83V 1m] "
20.5078	44.0659	20.5078	44.0295	20.5078	44.0962	20.5078	43.9905	20.5078	44.1178	20.5078	43.9526	20.5078	44.1289	20.5078	43.9193	20.5078	44.1287	20.5078	43.8943	20.5078	44.1178	20.5078	43.8802	20.5078	44.098	20.5078	43.879	20.5078	44.0725	20.5078	43.8915	20.5078	44.0456	20.5078	43.9175	20.5078	44.0221	20.5078	43.956	20.5078	44.0071	20.5078	44.0045	20.5078	44.0045	20.5078	44.0597	20.5078	44.0169	20.5078	44.1173	20.5078	44.0447	20.5078	44.1718	20.5078	44.0853	20.5078	44.2173	20.5078	44.1335	20.5078	44.2479	20.5078	44.1823	20.5078	44.2598	20.5078	44.2238	20.5078	44.2512
21.2402	46.1387	21.2402	46.1962	21.2402	46.0324	21.2402	46.2055	21.2402	45.8769	21.2402	46.1678	21.2402	45.6728	21.2402	46.0844	21.2402	45.4218	21.2402	45.9578	21.2402	45.1281	21.2402	45.7915	21.2402	44.7989	21.2402	45.591	21.2402	44.446	21.2402	45.3643	21.2402	44.086	21.2402	45.122	21.2402	43.7409	21.2402	44.877	21.2402	43.4361	21.2402	44.6427	21.2402	43.197	21.2402	44.4303	21.2402	43.043	21.2402	44.2463	21.2402	42.9822	21.2402	44.09	21.2402	43.0082	21.2402	43.9537	21.2402	43.1026	21.2402	43.8255	21.2402	43.2401	21.2402	43.6935	21.2402	43.3956	21.2402	43.55
21.9727	44.8226	21.9727	44.8081	21.9727	44.8107	21.9727	44.7708	21.9727	44.7711	21.9727	44.7167	21.9727	44.7049	21.9727	44.6537	21.9727	44.6156	21.9727	44.5922	21.9727	44.5096	21.9727	44.5437	21.9727	44.3961	21.9727	44.5202	21.9727	44.2872	21.9727	44.5319	21.9727	44.197	21.9727	44.585	21.9727	44.1403	21.9727	44.6799	21.9727	44.1304	21.9727	44.8099	21.9727	44.1767	21.9727	44.9617	21.9727	44.2813	21.9727	45.1176	21.9727	44.4379	21.9727	45.2576	21.9727	44.632	21.9727	45.3631	21.9727	44.8424	21.9727	45.4185	21.9727	45.0458	21.9727	45.414	21.9727	45.2198	21.9727	45.3464
22.7051	49.1668	22.7051	49.1256	22.7051	49.186	22.7051	49.0653	22.7051	49.1819	22.7051	48.9898	22.7051	49.1543	22.7051	48.9043	22.7051	49.1046	22.7051	48.8149	22.7051	49.036	22.7051	48.7287	22.7051	48.9535	22.7051	48.6529	22.7051	48.8635	22.7051	48.5945	22.7051	48.7741	22.7051	48.559	22.7051	48.6939	22.7051	48.5498	22.7051	48.6314	22.7051	48.5668	22.7051	48.5931	22.7051	48.6064	22.7051	48.5826	22.7051	48.6611	22.7051	48.5996	22.7051	48.7214	22.7051	48.6392	22.7051	48.7765	22.7051	48.6927	22.7051	48.8167	22.7051	48.7492	22.7051	48.8349	22.7051	48.7974	22.7051	48.828
23.4375	47.8087	23.4375	47.7526	23.4375	47.8158	23.4375	47.6503	23.4375	47.7719	23.4375	47.5053	23.4375	47.6756	23.4375	47.3222	23.4375	47.5268	23.4375	47.1071	23.4375	47.3267	23.4375	46.868	23.4375	47.0789	23.4375	46.6149	23.4375	46.7899	23.4375	46.3603	23.4375	46.4702	23.4375	46.1179	23.4375	46.1349	23.4375	45.9011	23.4375	45.8043	23.4375	45.7208	23.4375	45.5025	23.4375	45.5823	23.4375	45.2539	23.4375	45.4832	23.4375	45.0782	23.4375	45.4139	23.4375	44.9841	23.4375	45.36	23.4375	44.9662	23.4375	45.3066	23.4375	45.0067	23.4375	45.2426	23.4375	45.0808	23.4375	45.1651
24.1699	45.4836	24.1699	45.4959	24.1699	45.4196	24.1699	45.4606	24.1699	45.3027	24.1699	45.3847	24.1699	45.1348	24.1699	45.2787	24.1699	44.9213	24.1699	45.1567	24.1699	44.6727	24.1699	45.0368	24.1699	44.4056	24.1699	44.9395	24.1699	44.1444	24.1699	44.8853	24.1699	43.9217	24.1699	44.8908	24.1699	43.7745	24.1699	44.9639	24.1699	43.7369	24.1699	45.1003	24.1699	43.8285	24.1699	45.2836	24.1699	44.0449	24.1699	45.4878	24.1699	44.3575	24.1699	45.6829	24.1699	44.722	24.1699	45.8395	24.1699	45.0906	24.1699	45.9325	24.1699	45.4218	24.1699	45.9435	24.1699	45.6851	24.1699	45.8616
25.6348	49.0004	25.6348	48.9382	25.6348	49.0129	25.6348	48.8315	25.6348	48.974	25.6348	48.6883	25.6348	48.8845	25.6348	48.5208	25.6348	48.7489	25.6348	48.3457	25.6348	48.576	25.6348	48.1838	25.6348	48.3802	25.6348	48.0595	25.6348	48.1822	25.6348	47.9965	25.6348	48.0085	25.6348	48.0129	25.6348	47.8893	25.6348	48.1154	25.6348	47.8521	25.6348	48.2958	25.6348	47.9135	25.6348	48.5318	25.6348	48.0728	25.6348	48.7924	25.6348	48.3099	25.6348	49.0438	25.6348	48.591	25.6348	49.2551	25.6348	48.8772	25.6348	49.4016	25.6348	49.132	25.6348	49.4664	25.6348	49.3265	25.6348	49.4412
26.3672	49.6003	26.3672	49.5531	26.3672	49.5969	26.3672	49.4605	26.3672	49.5408	26.3672	49.3309	26.3672	49.4327	26.3672	49.1766	26.3672	49.2772	26.3672	49.0144	26.3672	49.0829	26.3672	48.8652	26.3672	48.8649	26.3672	48.7527	26.3672	48.6448	26.3672	48.6999	26.3672	48.4515	26.3672	48.7238	26.3672	48.318	26.3672	48.8301	26.3672	48.2751	26.3672	49.0098	26.3672	48.342	26.3672	49.2407	26.3672	48.5178	26.3672	49.4922	26.3672	48.78	26.3672	49.7312	26.3672	49.0912	26.3672	49.9274	26.3672	49.4086	26.3672	50.0565	26.3672	49.6933	26.3672	50.1018	26.3672	49.9153	26.3672	50.0547
27.0996	50.8747	27.0996	50.836	27.0996	50.871	27.0996	50.7602	27.0996	50.8233	27.0996	50.6557	27.0996	50.7334	27.0996	50.5351	27.0996	50.6067	27.0996	50.4152	27.0996	50.4536	27.0996	50.3161	27.0996	50.2895	27.0996	50.2596	27.0996	50.1361	27.0996	50.2653	27.0996	50.0196	27.0996	50.3456	27.0996	49.9676	27.0996	50.5018	27.0996	50.0025	27.0996	50.722	27.0996	50.1344	27.0996	50.9832	27.0996	50.3562	27.0996	51.2561	27.0996	50.6437	27.0996	51.5103	27.0996	50.9623	27.0996	51.7183	27.0996	51.2749	27.0996	51.8581	27.0996	51.5479	27.0996	51.9148	27.0996	51.7555	27.0996	51.8805
27.832	51.4509	27.832	51.4067	27.832	51.4533	27.832	51.3263	27.832	51.4124	27.832	51.2192	27.832	51.3304	27.832	51.0996	27.832	51.2142	27.832	50.9861	27.832	51.0761	27.832	50.901	27.832	50.9342	27.832	50.8677	27.832	50.8125	27.832	50.9062	27.832	50.739	27.832	51.0277	27.832	50.7408	27.832	51.2305	27.832	50.8367	27.832	51.4993	27.832	51.0303	27.832	51.8077	27.832	51.3072	27.832	52.1242	27.832	51.6377	27.832	52.4174	27.832	51.9848	27.832	52.6595	27.832	52.3115	27.832	52.829	27.832	52.5866	27.832	52.9108	27.832	52.7867	27.832	52.897
29.2969	53.0626	29.2969	52.9845	29.2969	53.0983	29.2969	52.8701	29.2969	53.0893	29.2969	52.7307	29.2969	53.0378	29.2969	52.5827	29.2969	52.9502	29.2969	52.4479	29.2969	52.8381	29.2969	52.3522	29.2969	52.7186	29.2969	52.3221	29.2969	52.6144	29.2969	52.3791	29.2969	52.5521	29.2969	52.5329	29.2969	52.5576	29.2969	52.7772	29.2969	52.6501	29.2969	53.0906	29.2969	52.8346	29.2969	53.4412	29.2969	53.0992	29.2969	53.7935	29.2969	53.4171	29.2969	54.1145	29.2969	53.7531	29.2969	54.3768	29.2969	54.0713	29.2969	54.5597	29.2969	54.3403	29.2969	54.6501	29.2969	54.5358	29.2969	54.6419
30.0293	54.5921	30.0293	54.5327	30.0293	54.6146	30.0293	54.4427	30.0293	54.5982	30.0293	54.3324	30.0293	54.5445	30.0293	54.2169	30.0293	54.4596	30.0293	54.1152	30.0293	54.3544	30.0293	54.0495	30.0293	54.2449	30.0293	54.0417	30.0293	54.1522	30.0293	54.1092	30.0293	54.101	30.0293	54.2593	30.0293	54.115	30.0293	54.4867	30.0293	54.2114	30.0293	54.7733	30.0293	54.3945	30.0293	55.0919	30.0293	54.653	30.0293	55.4117	30.0293	54.9618	30.0293	55.7029	30.0293	55.2881	30.0293	55.9401	30.0293	55.5979	30.0293	56.1036	30.0293	55.8612	30.0293	56.1803	30.0293	56.055	30.0293	56.164
31.4941	56.335	31.4941	56.2506	31.4941	56.3766	31.4941	56.1307	31.4941	56.3725	31.4941	55.987	31.4941	56.3242	31.4941	55.8367	31.4941	56.2372	31.4941	55.7019	31.4941	56.1227	31.4941	55.6088	31.4941	55.9976	31.4941	55.5836	31.4941	55.8847	31.4941	55.6468	31.4941	55.8116	31.4941	55.8072	31.4941	55.8059	31.4941	56.0573	31.4941	55.8885	31.4941	56.3749	31.4941	56.0664	31.4941	56.7277	31.4941	56.3285	31.4941	57.0803	31.4941	56.6478	31.4941	57.3996	31.4941	56.9883	31.4941	57.6585	31.4941	57.313	31.4941	57.8368	31.4941	57.5894	31.4941	57.9213	31.4941	57.7927	31.4941	57.9062
32.2266	57.9009	32.2266	57.8191	32.2266	57.9394	32.2266	57.7004	32.2266	57.9317	32.2266	57.5553	32.2266	57.8786	32.2266	57.3987	32.2266	57.7849	32.2266	57.2504	32.2266	57.6601	32.2266	57.1336	32.2266	57.519	32.2266	57.0727	32.2266	57.3827	32.2266	57.0886	32.2266	57.2768	32.2266	57.1929	32.2266	57.2288	32.2266	57.3834	32.2266	57.2613	32.2266	57.6434	32.2266	57.3851	32.2266	57.9453	32.2266	57.5941	32.2266	58.2563	32.2266	57.8658	32.2266	58.5442	32.2266	58.1668	32.2266	58.7812	32.2266	58.461	32.2266	58.946	32.2266	58.7154	32.2266	59.0246	32.2266	58.9043	32.2266	59.0103
33.6914	58.9659	33.6914	58.8833	33.6914	59.0013	33.6914	58.7615	33.6914	58.9862	33.6914	58.6134	33.6914	58.9215	33.6914	58.4578	33.6914	58.8133	33.6914	58.3191	33.6914	58.6735	33.6914	58.2262	33.6914	58.5208	33.6914	58.2078	33.6914	58.3817	33.6914	58.2863	33.6914	58.2885	33.6914	58.4698	33.6914	58.274	33.6914	58.7485	33.6914	58.3634	33.6914	59.0958	33.6914	58.5643	33.6914	59.4758	33.6914	58.8628	33.6914	59.85	33.6914	59.2264	33.6914	60.1838	33.6914	59.6133	33.6914	60.4494	33.6914	59.9819	33.6914	60.6263	33.6914	60.2969	33.6914	60.7017	33.6914	60.532	33.6914	60.6698
34.4238	59.6708	34.4238	59.5924	34.4238	59.7034	34.4238	59.4762	34.4238	59.6869	34.4238	59.3353	34.4238	59.6228	34.4238	59.1884	34.4238	59.5172	34.4238	59.0599	34.4238	59.3826	34.4238	58.9784	34.4238	59.238	34.4238	58.9718	34.4238	59.11	34.4238	59.061	34.4238	59.0301	34.4238	59.2529	34.4238	59.0301	34.4238	59.5367	34.4238	59.1332	34.4238	59.886	34.4238	59.3452	34.4238	60.2653	34.4238	59.651	34.4238	60.6372	34.4238	60.0179	34.4238	60.9683	34.4238	60.4049	34.4238	61.2314	34.4238	60.7715	34.4238	61.4068	34.4238	61.0835	34.4238	61.482	34.4238	61.3155	34.4238	61.4512
35.8887	61.6422	35.8887	61.5835	35.8887	61.6646	35.8887	61.4961	35.8887	61.6477	35.8887	61.3923	35.8887	61.5929	35.8887	61.2894	35.8887	61.5067	35.8887	61.2091	35.8887	61.401	35.8887	61.1752	35.8887	61.2935	35.8887	61.2102	35.8887	61.2078	35.8887	61.3292	35.8887	61.1711	35.8887	61.5355	35.8887	61.209	35.8887	61.8179	35.8887	61.3389	35.8887	62.1527	35.8887	61.5631	35.8887	62.5092	35.8887	61.867	35.8887	62.8551	35.8887	62.2216	35.8887	63.1607	35.8887	62.591	35.8887	63.4019	35.8887	62.9395	35.8887	63.5607	35.8887	63.2364	35.8887	63.6255	35.8887	63.4588	35.8887	63.5912
37.3535	63.8599	37.3535	63.8135	37.3535	63.8737	37.3535	63.7411	37.3535	63.8521	37.3535	63.6536	37.3535	63.7967	37.3535	63.5661	37.3535	63.7134	37.3535	63.4972	37.3535	63.6132	37.3535	63.4675	37.3535	63.5122	37.3535	63.4962	37.3535	63.4318	37.3535	63.5968	37.3535	63.3959	37.3535	63.7731	37.3535	63.4272	37.3535	64.0171	37.3535	63.5414	37.3535	64.3096	37.3535	63.7409	37.3535	64.6243	37.3535	64.0135	37.3535	64.9325	37.3535	64.3338	37.3535	65.2069	37.3535	64.6698	37.3535	65.4245	37.3535	64.9889	37.3535	65.5679	37.3535	65.2624	37.3535	65.6255	37.3535	65.4684	37.3535	65.592
38.8184	66.177	38.8184	66.1322	38.8184	66.1908	38.8184	66.0622	38.8184	66.1714	38.8184	65.9761	38.8184	66.1203	38.8184	65.8868	38.8184	66.0424	38.8184	65.8102	38.8184	65.9473	38.8184	65.7643	38.8184	65.8488	38.8184	65.7663	38.8184	65.7651	38.8184	65.8299	38.8184	65.717	38.8184	65.9607	38.8184	65.7248	38.8184	66.1547	38.8184	65.8033	38.8184	66.3973	38.8184	65.9573	38.8184	66.6665	38.8184	66.1783	38.8184	66.9366	38.8184	66.4466	38.8184	67.1819	38.8184	66.7344	38.8184	67.3798	38.8184	67.012	38.8184	67.5126	38.8184	67.2524	38.8184	67.5686	38.8184	67.4341	38.8184	67.5421
39.5508	66.98	39.5508	66.9258	39.5508	67.0023	39.5508	66.8456	39.5508	66.9902	39.5508	66.7486	39.5508	66.9449	39.5508	66.6477	39.5508	66.8709	39.5508	66.5592	39.5508	66.7772	39.5508	66.5011	39.5508	66.6767	39.5508	66.4914	39.5508	66.587	39.5508	66.5441	39.5508	66.5285	39.5508	66.6655	39.5508	66.5214	39.5508	66.8516	39.5508	66.5816	39.5508	67.0882	39.5508	66.7154	39.5508	67.353	39.5508	66.9168	39.5508	67.6199	39.5508	67.1675	39.5508	67.863	39.5508	67.4409	39.5508	68.0595	39.5508	67.7077	39.5508	68.1917	39.5508	67.9406	39.5508	68.2478	39.5508	68.1174	39.5508	68.2226
41.0156	69.1417	41.0156	69.1158	41.0156	69.1418	41.0156	69.0688	41.0156	69.1142	41.0156	69.0085	41.0156	69.0602	41.0156	68.9453	41.0156	68.9844	41.0156	68.8921	41.0156	68.8953	41.0156	68.8633	41.0156	68.8052	41.0156	68.8727	41.0156	68.7303	41.0156	68.9314	41.0156	68.6887	41.0156	69.0446	41.0156	68.698	41.0156	69.2099	41.0156	68.7714	41.0156	69.4164	41.0156	68.9129	41.0156	69.6467	41.0156	69.1157	41.0156	69.8791	41.0156	69.3622	41.0156	70.091	41.0156	69.6279	41.0156	70.262	41.0156	69.8859	41.0156	70.3753	41.0156	70.1111	41.0156	70.4194	41.0156	70.2833	41.0156	70.3885
42.4805	71.1114	42.4805	71.0704	42.4805	71.1263	42.4805	71.0072	42.4805	71.114	42.4805	70.928	42.4805	71.0759	42.4805	70.842	42.4805	71.016	42.4805	70.7606	42.4805	70.9415	42.4805	70.6971	42.4805	70.8623	42.4805	70.6653	42.4805	70.7911	42.4805	70.6769	42.4805	70.7424	42.4805	70.7395	42.4805	70.7304	42.4805	70.8536	42.4805	70.7663	42.4805	71.0122	42.4805	70.855	42.4805	71.2008	42.4805	70.9931	42.4805	71.4004	42.4805	71.1687	42.4805	71.5901	42.4805	71.3632	42.4805	71.7502	42.4805	71.5546	42.4805	71.8643	42.4805	71.7215	42.4805	71.921	42.4805	71.8458	42.4805	71.9146
43.9453	72.78	43.9453	72.7382	43.9453	72.7953	43.9453	72.6735	43.9453	72.7829	43.9453	72.5918	43.9453	72.7436	43.9453	72.5013	43.9453	72.6806	43.9453	72.4122	43.9453	72.6	43.9453	72.3368	43.9453	72.5103	43.9453	72.2875	43.9453	72.4228	43.9453	72.2757	43.9453	72.3509	43.9453	72.309	43.9453	72.3085	43.9453	72.3894	43.9453	72.3074	43.9453	72.5117	43.9453	72.355	43.9453	72.6638	43.9453	72.4512	43.9453	72.8291	43.9453	72.5874	43.9453	72.9882	43.9453	72.7482	43.9453	73.1226	43.9453	72.9137	43.9453	73.2168	43.9453	73.0633	43.9453	73.26	43.9453	73.1789	43.9453	73.247
45.4102	74.5067	45.4102	74.4627	45.4102	74.5241	45.4102	74.3951	45.4102	74.5135	45.4102	74.3093	45.4102	74.4754	45.4102	74.2126	45.4102	74.4128	45.4102	74.1142	45.4102	74.3305	45.4102	74.0251	45.4102	74.2359	45.4102	73.9569	45.4102	74.1391	45.4102	73.9206	45.4102	74.052	45.4102	73.924	45.4102	73.9875	45.4102	73.9704	45.4102	73.9575	45.4102	74.0568	45.4102	73.9701	45.4102	74.1738	45.4102	74.0275	45.4102	74.3069	45.4102	74.1242	45.4102	74.4388	45.4102	74.2477	45.4102	74.5525	45.4102	74.3807	45.4102	74.6332	45.4102	74.5045	45.4102	74.6705	45.4102	74.6018	45.4102	74.6597
47.6074	76.9455	47.6074	76.9058	47.6074	76.9595	47.6074	76.8431	47.6074	76.9467	47.6074	76.7619	47.6074	76.9077	47.6074	76.6681	47.6074	76.8445	47.6074	76.5696	47.6074	76.7615	47.6074	76.4754	47.6074	76.6648	47.6074	76.3956	47.6074	76.5627	47.6074	76.3398	47.6074	76.4658	47.6074	76.3157	47.6074	76.3852	47.6074	76.3276	47.6074	76.3319	47.6074	76.3746	47.6074	76.3144	47.6074	76.4504	47.6074	76.3361	47.6074	76.5438	47.6074	76.3944	47.6074	76.6407	47.6074	76.4802	47.6074	76.7263	47.6074	76.5794	47.6074	76.7873	47.6074	76.676	47.6074	76.8143	47.6074	76.7545	47.6074	76.803
49.0723	78.4632	49.0723	78.4222	49.0723	78.479	49.0723	78.3583	49.0723	78.4684	49.0723	78.2756	49.0723	78.4318	49.0723	78.1793	49.0723	78.3712	49.0723	78.0764	49.0723	78.2901	49.0723	77.9753	49.0723	78.1939	49.0723	77.885	49.0723	78.09	49.0723	77.8148	49.0723	77.9876	49.0723	77.7722	49.0723	77.8971	49.0723	77.762	49.0723	77.8286	49.0723	77.7848	49.0723	77.7906	49.0723	77.8359	49.0723	77.7875	49.0723	77.9061	49.0723	77.8182	49.0723	77.9831	49.0723	77.8759	49.0723	78.0536	49.0723	77.9489	49.0723	78.1055	49.0723	78.0231	49.0723	78.1298	49.0723	78.0847	49.0723	78.1224
50.5371	79.7868	50.5371	79.7453	50.5371	79.8034	50.5371	79.6812	50.5371	79.7941	50.5371	79.5981	50.5371	79.7591	50.5371	79.5008	50.5371	79.7001	50.5371	79.3958	50.5371	79.6201	50.5371	79.2907	50.5371	79.524	50.5371	79.1938	50.5371	79.4185	50.5371	79.1139	50.5371	79.3119	50.5371	79.0584	50.5371	79.2138	50.5371	79.0324	50.5371	79.1338	50.5371	79.0371	50.5371	79.0803	50.5371	79.0691	50.5371	79.0584	50.5371	79.1209	50.5371	79.0683	50.5371	79.1816	50.5371	79.105	50.5371	79.2391	50.5371	79.1585	50.5371	79.2822	50.5371	79.2165	50.5371	79.3027	50.5371	79.2661	50.5371	79.2969
52.7344	81.7426	52.7344	81.7032	52.7344	81.7582	52.7344	81.6422	52.7344	81.7493	52.7344	81.5624	52.7344	81.7159	52.7344	81.468	52.7344	81.6593	52.7344	81.3644	52.7344	81.5819	52.7344	81.2579	52.7344	81.4876	52.7344	81.1558	52.7344	81.382	52.7344	81.0656	52.7344	81.272	52.7344	80.9942	52.7344	81.1659	52.7344	80.9467	52.7344	81.0723	52.7344	80.9254	52.7344	80.9992	52.7344	80.9287	52.7344	80.9523	52.7344	80.9513	52.7344	80.9335	52.7344	80.985	52.7344	80.9402	52.7344	81.0201	52.7344	80.9656	52.7344	81.0472	52.7344	80.9999	52.7344	81.0597	52.7344	81.0324	52.7344	81.0543
54.1992	82.9369	54.1992	82.8983	54.1992	82.9524	54.1992	82.8384	54.1992	82.9442	54.1992	82.7601	54.1992	82.912	54.1992	82.6671	54.1992	82.857	54.1992	82.564	54.1992	82.7813	54.1992	82.4569	54.1992	82.6883	54.1992	82.3521	54.1992	82.5829	54.1992	82.2569	54.1992	82.4714	54.1992	82.1775	54.1992	82.3613	54.1992	82.1193	54.1992	82.2608	54.1992	82.0848	54.1992	82.1776	54.1992	82.0733	54.1992	82.1178	54.1992	82.0808	54.1992	82.0839	54.1992	82.1005	54.1992	82.0748	54.1992	82.1237	54.1992	82.0851	54.1992	82.1426	54.1992	82.1064	54.1992	82.1509	54.1992	82.1294	54.1992	82.1461
56.3965	84.4383	56.3965	84.4016	56.3965	84.4527	56.3965	84.3443	56.3965	84.4441	56.3965	84.2688	56.3965	84.4123	56.3965	84.1783	56.3965	84.3581	56.3965	84.0771	56.3965	84.2832	56.3965	83.9704	56.3965	84.1907	56.3965	83.8639	56.3965	84.0847	56.3965	83.7641	56.3965	83.9709	56.3965	83.6769	56.3965	83.8559	56.3965	83.6073	56.3965	83.7476	56.3965	83.5583	56.3965	83.6535	56.3965	83.5302	56.3965	83.5797	56.3965	83.5201	56.3965	83.5299	56.3965	83.5228	56.3965	83.5041	56.3965	83.5313	56.3965	83.4988	56.3965	83.5388	56.3965	83.5072	56.3965	83.5405	56.3965	83.5215	56.3965	83.5342
