"SPL Horizontal"
"On-Axis"		"10°"		"-10°"		"20°"		"-20°"		"30°"		"-30°"		"40°"		"-40°"		"50°"		"-50°"		"60°"		"-60°"		"70°"		"-70°"		"80°"		"-80°"		"90°"		"-90°"		"100°"		"-100°"		"110°"		"-110°"		"120°"		"-120°"		"130°"		"-130°"		"140°"		"-140°"		"150°"		"-150°"		"160°"		"-160°"		"170°"		"-170°"		"180°"
"Frequency / Hz"	"Sound Pressure Level / dB (re 20 µPa/V)  [2.83  V @ 1. m]"	"Frequency / Hz"	"Sound Pressure Level / dB (re 20 µPa/V)  [2.83  V @ 1. m]"	"Frequency / Hz"	"Sound Pressure Level / dB (re 20 µPa/V)  [2.83  V @ 1. m]"	"Frequency / Hz"	"Sound Pressure Level / dB (re 20 µPa/V)  [2.83  V @ 1. m]"	"Frequency / Hz"	"Sound Pressure Level / dB (re 20 µPa/V)  [2.83  V @ 1. m]"	"Frequency / Hz"	"Sound Pressure Level / dB (re 20 µPa/V)  [2.83  V @ 1. m]"	"Frequency / Hz"	"Sound Pressure Level / dB (re 20 µPa/V)  [2.83  V @ 1. m]"	"Frequency / Hz"	"Sound Pressure Level / dB (re 20 µPa/V)  [2.83  V @ 1. m]"	"Frequency / Hz"	"Sound Pressure Level / dB (re 20 µPa/V)  [2.83  V @ 1. m]"	"Frequency / Hz"	"Sound Pressure Level / dB (re 20 µPa/V)  [2.83  V @ 1. m]"	"Frequency / Hz"	"Sound Pressure Level / dB (re 20 µPa/V)  [2.83  V @ 1. m]"	"Frequency / Hz"	"Sound Pressure Level / dB (re 20 µPa/V)  [2.83  V @ 1. m]"	"Frequency / Hz"	"Sound Pressure Level / dB (re 20 µPa/V)  [2.83  V @ 1. m]"	"Frequency / Hz"	"Sound Pressure Level / dB (re 20 µPa/V)  [2.83  V @ 1. m]"	"Frequency / Hz"	"Sound Pressure Level / dB (re 20 µPa/V)  [2.83  V @ 1. m]"	"Frequency / Hz"	"Sound Pressure Level / dB (re 20 µPa/V)  [2.83  V @ 1. m]"	"Frequency / Hz"	"Sound Pressure Level / dB (re 20 µPa/V)  [2.83  V @ 1. m]"	"Frequency / Hz"	"Sound Pressure Level / dB (re 20 µPa/V)  [2.83  V @ 1. m]"	"Frequency / Hz"	"Sound Pressure Level / dB (re 20 µPa/V)  [2.83  V @ 1. m]"	"Frequency / Hz"	"Sound Pressure Level / dB (re 20 µPa/V)  [2.83  V @ 1. m]"	"Frequency / Hz"	"Sound Pressure Level / dB (re 20 µPa/V)  [2.83  V @ 1. m]"	"Frequency / Hz"	"Sound Pressure Level / dB (re 20 µPa/V)  [2.83  V @ 1. m]"	"Frequency / Hz"	"Sound Pressure Level / dB (re 20 µPa/V)  [2.83  V @ 1. m]"	"Frequency / Hz"	"Sound Pressure Level / dB (re 20 µPa/V)  [2.83  V @ 1. m]"	"Frequency / Hz"	"Sound Pressure Level / dB (re 20 µPa/V)  [2.83  V @ 1. m]"	"Frequency / Hz"	"Sound Pressure Level / dB (re 20 µPa/V)  [2.83  V @ 1. m]"	"Frequency / Hz"	"Sound Pressure Level / dB (re 20 µPa/V)  [2.83  V @ 1. m]"	"Frequency / Hz"	"Sound Pressure Level / dB (re 20 µPa/V)  [2.83  V @ 1. m]"	"Frequency / Hz"	"Sound Pressure Level / dB (re 20 µPa/V)  [2.83  V @ 1. m]"	"Frequency / Hz"	"Sound Pressure Level / dB (re 20 µPa/V)  [2.83  V @ 1. m]"	"Frequency / Hz"	"Sound Pressure Level / dB (re 20 µPa/V)  [2.83  V @ 1. m]"	"Frequency / Hz"	"Sound Pressure Level / dB (re 20 µPa/V)  [2.83  V @ 1. m]"	"Frequency / Hz"	"Sound Pressure Level / dB (re 20 µPa/V)  [2.83  V @ 1. m]"	"Frequency / Hz"	"Sound Pressure Level / dB (re 20 µPa/V)  [2.83  V @ 1. m]"	"Frequency / Hz"	"Sound Pressure Level / dB (re 20 µPa/V)  [2.83  V @ 1. m]"	"Frequency / Hz"	"Sound Pressure Level / dB (re 20 µPa/V)  [2.83  V @ 1. m]"
20.5078	56.8027	20.5078	56.5933	20.5078	57.0182	20.5078	56.3954	20.5078	57.2366	20.5078	56.2191	20.5078	57.4552	20.5078	56.0809	20.5078	57.6702	20.5078	56.003	20.5078	57.8774	20.5078	56.0079	20.5078	58.0729	20.5078	56.1107	20.5078	58.255	20.5078	56.3118	20.5078	58.4256	20.5078	56.5958	20.5078	58.5885	20.5078	56.937	20.5078	58.7464	20.5078	57.3057	20.5078	58.8964	20.5078	57.6731	20.5078	59.0272	20.5078	58.0132	20.5078	59.1219	20.5078	58.3049	20.5078	59.1659	20.5078	58.5358	20.5078	59.1551	20.5078	58.7065	20.5078	59.1001	20.5078	58.8311	20.5078	59.0201	20.5078	58.9304
21.9727	48.8107	21.9727	48.6404	21.9727	49.0624	21.9727	48.5785	21.9727	49.3706	21.9727	48.6516	21.9727	49.7128	21.9727	48.876	21.9727	50.0669	21.9727	49.2458	21.9727	50.4119	21.9727	49.7276	21.9727	50.7292	21.9727	50.2683	21.9727	51.0051	21.9727	50.8087	21.9727	51.2315	21.9727	51.2962	21.9727	51.4048	21.9727	51.6917	21.9727	51.5236	21.9727	51.9711	21.9727	51.5861	21.9727	52.124	21.9727	51.5889	21.9727	52.1507	21.9727	51.5283	21.9727	52.0599	21.9727	51.4083	21.9727	51.87	21.9727	51.2531	21.9727	51.6147	21.9727	51.1157	21.9727	51.3494	21.9727	51.0647	21.9727	51.1461
23.4375	48.5889	23.4375	48.5556	23.4375	48.6733	23.4375	48.5877	23.4375	48.7952	23.4375	48.6971	23.4375	48.9412	23.4375	48.8902	23.4375	49.099	23.4375	49.1629	23.4375	49.2565	23.4375	49.4979	23.4375	49.4025	23.4375	49.8665	23.4375	49.5278	23.4375	50.2325	23.4375	49.6272	23.4375	50.5599	23.4375	49.699	23.4375	50.8183	23.4375	49.7426	23.4375	50.9863	23.4375	49.7546	23.4375	51.0519	23.4375	49.7268	23.4375	51.0096	23.4375	49.6513	23.4375	50.8593	23.4375	49.5329	23.4375	50.6077	23.4375	49.4046	23.4375	50.2764	23.4375	49.331	23.4375	49.9122	23.4375	49.3824	23.4375	49.5884
24.9023	48.0134	24.9023	47.8543	24.9023	48.1707	24.9023	47.6956	24.9023	48.3257	24.9023	47.5451	24.9023	48.4766	24.9023	47.4202	24.9023	48.6187	24.9023	47.3471	24.9023	48.7439	24.9023	47.3546	24.9023	48.8432	24.9023	47.4632	24.9023	48.9104	24.9023	47.6748	24.9023	48.9474	24.9023	47.9693	24.9023	48.9655	24.9023	48.3097	24.9023	48.9807	24.9023	48.6522	24.9023	49.0048	24.9023	48.9555	24.9023	49.0386	24.9023	49.186	24.9023	49.0716	24.9023	49.3228	24.9023	49.091	24.9023	49.3619	24.9023	49.0924	24.9023	49.3205	24.9023	49.0877	24.9023	49.2353	24.9023	49.1009	24.9023	49.1515
26.3672	45.0423	26.3672	44.8806	26.3672	45.2095	26.3672	44.7355	26.3672	45.3758	26.3672	44.6272	26.3672	45.5363	26.3672	44.5844	26.3672	45.6841	26.3672	44.6399	26.3672	45.8101	26.3672	44.818	26.3672	45.9045	26.3672	45.1223	26.3672	45.9617	26.3672	45.5309	26.3672	45.9853	26.3672	46.0033	26.3672	45.9893	26.3672	46.4923	26.3672	45.995	26.3672	46.9531	26.3672	46.0216	26.3672	47.3472	26.3672	46.0798	26.3672	47.642	26.3672	46.1715	26.3672	47.8122	26.3672	46.2967	26.3672	47.8431	26.3672	46.4606	26.3672	47.7371	26.3672	46.6734	26.3672	47.519	26.3672	46.9377	26.3672	47.2343
27.832	45.7946	27.832	45.7349	27.832	45.8878	27.832	45.7139	27.832	46.0106	27.832	45.7393	27.832	46.1579	27.832	45.8215	27.832	46.3229	27.832	45.9701	27.832	46.4968	27.832	46.1891	27.832	46.6706	27.832	46.474	27.832	46.838	27.832	46.8108	27.832	46.9986	27.832	47.1794	27.832	47.158	27.832	47.5568	27.832	47.3243	27.832	47.9194	27.832	47.5019	27.832	48.244	27.832	47.6872	27.832	48.5083	27.832	47.8704	27.832	48.6931	27.832	48.0413	27.832	48.7869	27.832	48.1958	27.832	48.7915	27.832	48.3383	27.832	48.7233	27.832	48.4761	27.832	48.6093
29.2969	48.5723	29.2969	48.5593	29.2969	48.6084	29.2969	48.5676	29.2969	48.6685	29.2969	48.5966	29.2969	48.7512	29.2969	48.6483	29.2969	48.8513	29.2969	48.7272	29.2969	48.9607	29.2969	48.8386	29.2969	49.0696	29.2969	48.986	29.2969	49.1701	29.2969	49.1681	29.2969	49.2589	29.2969	49.3776	29.2969	49.3395	29.2969	49.6013	29.2969	49.4192	29.2969	49.8216	29.2969	49.5045	29.2969	50.0187	29.2969	49.5971	29.2969	50.1738	29.2969	49.693	29.2969	50.2725	29.2969	49.7861	29.2969	50.3084	29.2969	49.873	29.2969	50.286	29.2969	49.9567	29.2969	50.2206	29.2969	50.0428	29.2969	50.1335
30.7617	49.7994	30.7617	49.7359	30.7617	49.8491	30.7617	49.6565	30.7617	49.8876	30.7617	49.5616	30.7617	49.9168	30.7617	49.4558	30.7617	49.9364	30.7617	49.3482	30.7617	49.9441	30.7617	49.2523	30.7617	49.9364	30.7617	49.1832	30.7617	49.9107	30.7617	49.1541	30.7617	49.8682	30.7617	49.172	30.7617	49.8155	30.7617	49.235	30.7617	49.7627	30.7617	49.3318	30.7617	49.7198	30.7617	49.4437	30.7617	49.6914	30.7617	49.5494	30.7617	49.6759	30.7617	49.6304	30.7617	49.6673	30.7617	49.6769	30.7617	49.6609	30.7617	49.6904	30.7617	49.6562	30.7617	49.6819	30.7617	49.6572	30.7617	49.6669
32.2266	50.5874	32.2266	50.4948	32.2266	50.6723	32.2266	50.3953	32.2266	50.7499	32.2266	50.2921	32.2266	50.8208	32.2266	50.1921	32.2266	50.8845	32.2266	50.1057	32.2266	50.9397	32.2266	50.0456	32.2266	50.9849	32.2266	50.0242	32.2266	51.0197	32.2266	50.0504	32.2266	51.0472	32.2266	50.1276	32.2266	51.0737	32.2266	50.2511	32.2266	51.1067	32.2266	50.4087	32.2266	51.1505	32.2266	50.5823	32.2266	51.2028	32.2266	50.7524	32.2266	51.2548	32.2266	50.9028	32.2266	51.295	32.2266	51.025	32.2266	51.3146	32.2266	51.1188	32.2266	51.3105	32.2266	51.1897	32.2266	51.2854	32.2266	51.2443
33.6914	52.7053	33.6914	52.6352	33.6914	52.7744	33.6914	52.5624	33.6914	52.844	33.6914	52.4865	33.6914	52.9151	33.6914	52.4093	33.6914	52.9868	33.6914	52.3352	33.6914	53.0568	33.6914	52.2711	33.6914	53.1218	33.6914	52.2247	33.6914	53.179	33.6914	52.2033	33.6914	53.2272	33.6914	52.2119	33.6914	53.2681	33.6914	52.2514	33.6914	53.305	33.6914	52.3182	33.6914	53.3392	33.6914	52.4048	33.6914	53.3677	33.6914	52.5024	33.6914	53.3828	33.6914	52.6043	33.6914	53.3744	33.6914	52.7084	33.6914	53.3349	33.6914	52.8163	33.6914	53.2627	33.6914	52.9304	33.6914	53.1635	33.6914	53.0487
35.1562	55.4206	35.1562	55.3835	35.1562	55.4476	35.1562	55.3345	35.1562	55.4665	35.1562	55.2723	35.1562	55.4783	35.1562	55.1972	35.1562	55.4828	35.1562	55.1116	35.1562	55.4785	35.1562	55.0203	35.1562	55.4633	35.1562	54.9297	35.1562	55.4354	35.1562	54.8476	35.1562	55.3947	35.1562	54.7811	35.1562	55.3445	35.1562	54.735	35.1562	55.2899	35.1562	54.7103	35.1562	55.2364	35.1562	54.7035	35.1562	55.187	35.1562	54.7088	35.1562	55.1403	35.1562	54.7213	35.1562	55.0923	35.1562	54.7395	35.1562	55.039	35.1562	54.766	35.1562	54.979	35.1562	54.8042	35.1562	54.9157	35.1562	54.8552
36.6211	58.5148	36.6211	58.4778	36.6211	58.5391	36.6211	58.4274	36.6211	58.5517	36.6211	58.3635	36.6211	58.553	36.6211	58.2872	36.6211	58.5434	36.6211	58.2013	36.6211	58.5222	36.6211	58.1104	36.6211	58.489	36.6211	58.0206	36.6211	58.4439	36.6211	57.9388	36.6211	58.3886	36.6211	57.8715	36.6211	58.3272	36.6211	57.8236	36.6211	58.2652	36.6211	57.7967	36.6211	58.2081	36.6211	57.7888	36.6211	58.1594	36.6211	57.7956	36.6211	58.1191	36.6211	57.8124	36.6211	58.0842	36.6211	57.836	36.6211	58.0507	36.6211	57.8652	36.6211	58.0154	36.6211	57.8996	36.6211	57.9773	36.6211	57.9378
38.0859	61.0604	38.0859	61.0276	38.0859	61.0882	38.0859	60.9888	38.0859	61.1125	38.0859	60.9435	38.0859	61.1349	38.0859	60.8922	38.0859	61.1566	38.0859	60.8369	38.0859	61.1787	38.0859	60.7813	38.0859	61.2018	38.0859	60.7299	38.0859	61.2264	38.0859	60.6883	38.0859	61.253	38.0859	60.6615	38.0859	61.2819	38.0859	60.6533	38.0859	61.3124	38.0859	60.6649	38.0859	61.3413	38.0859	60.6946	38.0859	61.3626	38.0859	60.7389	38.0859	61.3684	38.0859	60.7941	38.0859	61.3525	38.0859	60.8578	38.0859	61.3125	38.0859	60.9294	38.0859	61.2511	38.0859	61.008	38.0859	61.1748	38.0859	61.0914
39.5508	62.7873	39.5508	62.7395	39.5508	62.821	39.5508	62.677	39.5508	62.8421	39.5508	62.5999	39.5508	62.8522	39.5508	62.5097	39.5508	62.8529	39.5508	62.409	39.5508	62.8459	39.5508	62.3024	39.5508	62.8324	39.5508	62.1955	39.5508	62.8137	39.5508	62.0947	39.5508	62.7911	39.5508	62.0064	39.5508	62.7658	39.5508	61.9358	39.5508	62.7384	39.5508	61.8864	39.5508	62.7078	39.5508	61.8598	39.5508	62.6706	39.5508	61.856	39.5508	62.6219	39.5508	61.8749	39.5508	62.5574	39.5508	61.9167	39.5508	62.4755	39.5508	61.981	39.5508	62.3787	39.5508	62.0657	39.5508	62.2726	39.5508	62.1654
41.0156	63.379	41.0156	63.3326	41.0156	63.407	41.0156	63.2674	41.0156	63.4177	41.0156	63.1838	41.0156	63.4126	41.0156	63.0833	41.0156	63.393	41.0156	62.9696	41.0156	63.3604	41.0156	62.8481	41.0156	63.3163	41.0156	62.7261	41.0156	63.2629	41.0156	62.6121	41.0156	63.2035	41.0156	62.515	41.0156	63.1421	41.0156	62.4433	41.0156	63.083	41.0156	62.4028	41.0156	63.0291	41.0156	62.3961	41.0156	62.981	41.0156	62.4207	41.0156	62.9374	41.0156	62.47	41.0156	62.8964	41.0156	62.5343	41.0156	62.8566	41.0156	62.6034	41.0156	62.8165	41.0156	62.6686	41.0156	62.7739	41.0156	62.7255
42.4805	66.5119	42.4805	66.4729	42.4805	66.5357	42.4805	66.4178	42.4805	66.5451	42.4805	66.346	42.4805	66.5409	42.4805	66.2574	42.4805	66.5237	42.4805	66.1523	42.4805	66.4939	42.4805	66.0322	42.4805	66.4516	42.4805	65.8994	42.4805	66.3972	42.4805	65.7571	42.4805	66.3309	42.4805	65.61	42.4805	66.2537	42.4805	65.4636	42.4805	66.166	42.4805	65.3245	42.4805	66.0679	42.4805	65.2003	42.4805	65.9587	42.4805	65.099	42.4805	65.8378	42.4805	65.0292	42.4805	65.7052	42.4805	64.9982	42.4805	65.5637	42.4805	65.0106	42.4805	65.4193	42.4805	65.0662	42.4805	65.2809	42.4805	65.1595
43.9453	69.1794	43.9453	69.1556	43.9453	69.1891	43.9453	69.1173	43.9453	69.1853	43.9453	69.0644	43.9453	69.1688	43.9453	68.9973	43.9453	69.1402	43.9453	68.917	43.9453	69.1002	43.9453	68.8251	43.9453	69.0498	43.9453	68.724	43.9453	68.99	43.9453	68.6168	43.9453	68.9219	43.9453	68.5074	43.9453	68.8474	43.9453	68.4	43.9453	68.768	43.9453	68.2995	43.9453	68.6852	43.9453	68.2106	43.9453	68.6002	43.9453	68.1382	43.9453	68.5136	43.9453	68.0865	43.9453	68.4266	43.9453	68.0588	43.9453	68.3409	43.9453	68.0566	43.9453	68.2592	43.9453	68.0793	43.9453	68.1853	43.9453	68.1237
45.4102	70.9662	45.4102	70.9513	45.4102	70.9697	45.4102	70.9249	45.4102	70.9619	45.4102	70.8871	45.4102	70.9434	45.4102	70.8385	45.4102	70.9147	45.4102	70.7801	45.4102	70.8769	45.4102	70.7132	45.4102	70.8306	45.4102	70.6398	45.4102	70.7773	45.4102	70.5623	45.4102	70.7183	45.4102	70.4835	45.4102	70.6551	45.4102	70.4066	45.4102	70.5896	45.4102	70.3349	45.4102	70.5234	45.4102	70.2715	45.4102	70.4581	45.4102	70.2192	45.4102	70.3952	45.4102	70.1801	45.4102	70.3361	45.4102	70.1555	45.4102	70.2825	45.4102	70.1459	45.4102	70.2357	45.4102	70.1506	45.4102	70.1971	45.4102	70.1682
46.875	72.9258	46.875	72.9168	46.875	72.9244	46.875	72.8975	46.875	72.9129	46.875	72.8683	46.875	72.8916	46.875	72.8298	46.875	72.8613	46.875	72.7832	46.875	72.823	46.875	72.7295	46.875	72.7778	46.875	72.6703	46.875	72.7272	46.875	72.6075	46.875	72.6725	46.875	72.5429	46.875	72.6153	46.875	72.479	46.875	72.557	46.875	72.418	46.875	72.4992	46.875	72.3624	46.875	72.4436	46.875	72.3144	46.875	72.3916	46.875	72.276	46.875	72.3449	46.875	72.2483	46.875	72.3048	46.875	72.2321	46.875	72.2722	46.875	72.227	46.875	72.2479	46.875	72.2326
48.3398	74.8015	48.3398	74.7943	48.3398	74.8	48.3398	74.7786	48.3398	74.7898	48.3398	74.755	48.3398	74.7711	48.3398	74.7243	48.3398	74.7446	48.3398	74.6877	48.3398	74.7114	48.3398	74.6462	48.3398	74.6725	48.3398	74.6011	48.3398	74.6295	48.3398	74.5537	48.3398	74.5837	48.3398	74.5055	48.3398	74.5363	48.3398	74.4579	48.3398	74.4886	48.3398	74.4123	48.3398	74.4417	48.3398	74.37	48.3398	74.397	48.3398	74.3325	48.3398	74.3559	48.3398	74.3009	48.3398	74.3201	48.3398	74.2762	48.3398	74.2907	48.3398	74.2589	48.3398	74.2686	48.3398	74.2495	48.3398	74.2543	48.3398	74.248
51.2695	77.8124	51.2695	77.8055	51.2695	77.8112	51.2695	77.7912	51.2695	77.8017	51.2695	77.7704	51.2695	77.7837	51.2695	77.7442	51.2695	77.7579	51.2695	77.7138	51.2695	77.725	51.2695	77.6803	51.2695	77.6864	51.2695	77.645	51.2695	77.6437	51.2695	77.609	51.2695	77.5988	51.2695	77.5735	51.2695	77.5537	51.2695	77.5394	51.2695	77.5104	51.2695	77.5078	51.2695	77.4707	51.2695	77.4793	51.2695	77.4366	51.2695	77.4544	51.2695	77.4092	51.2695	77.4332	51.2695	77.3895	51.2695	77.4154	51.2695	77.3775	51.2695	77.4006	51.2695	77.3725	51.2695	77.3885	51.2695	77.3736	51.2695	77.3792
52.7344	78.972	52.7344	78.9727	52.7344	78.9645	52.7344	78.9671	52.7344	78.9501	52.7344	78.9558	52.7344	78.9292	52.7344	78.9398	52.7344	78.9024	52.7344	78.9201	52.7344	78.8708	52.7344	78.8979	52.7344	78.8359	52.7344	78.8745	52.7344	78.7994	52.7344	78.8513	52.7344	78.7632	52.7344	78.8294	52.7344	78.7293	52.7344	78.8099	52.7344	78.6998	52.7344	78.7936	52.7344	78.6763	52.7344	78.7805	52.7344	78.6604	52.7344	78.7702	52.7344	78.6529	52.7344	78.7613	52.7344	78.6538	52.7344	78.7523	52.7344	78.6621	52.7344	78.7413	52.7344	78.6761	52.7344	78.7275	52.7344	78.6932	52.7344	78.7111
54.1992	80.0417	54.1992	80.048	54.1992	80.0261	54.1992	80.0452	54.1992	80.0013	54.1992	80.0337	54.1992	79.968	54.1992	80.0144	54.1992	79.9271	54.1992	79.9882	54.1992	79.88	54.1992	79.9563	54.1992	79.8286	54.1992	79.9203	54.1992	79.7747	54.1992	79.8817	54.1992	79.7207	54.1992	79.8421	54.1992	79.6687	54.1992	79.8031	54.1992	79.621	54.1992	79.7661	54.1992	79.5801	54.1992	79.7318	54.1992	79.548	54.1992	79.7005	54.1992	79.5265	54.1992	79.6717	54.1992	79.5164	54.1992	79.6445	54.1992	79.5173	54.1992	79.6182	54.1992	79.5276	54.1992	79.5924	54.1992	79.5452	54.1992	79.5676
55.6641	81.1233	55.6641	81.1244	55.6641	81.1081	55.6641	81.1118	55.6641	81.0793	55.6641	81.0859	55.6641	81.0374	55.6641	81.0477	55.6641	80.9836	55.6641	80.9987	55.6641	80.919	55.6641	80.9406	55.6641	80.8456	55.6641	80.8754	55.6641	80.7652	55.6641	80.8053	55.6641	80.6801	55.6641	80.7323	55.6641	80.5927	55.6641	80.6585	55.6641	80.5061	55.6641	80.5856	55.6641	80.4236	55.6641	80.5151	55.6641	80.349	55.6641	80.4484	55.6641	80.2862	55.6641	80.3867	55.6641	80.2383	55.6641	80.3309	55.6641	80.2072	55.6641	80.2823	55.6641	80.1934	55.6641	80.2423	55.6641	80.1958	55.6641	80.2128
58.5938	82.143	58.5938	82.128	58.5938	82.148	58.5938	82.1036	58.5938	82.1427	58.5938	82.0707	58.5938	82.1272	58.5938	82.0304	58.5938	82.1017	58.5938	81.984	58.5938	82.067	58.5938	81.9328	58.5938	82.0242	58.5938	81.8782	58.5938	81.9746	58.5938	81.8218	58.5938	81.9197	58.5938	81.765	58.5938	81.8612	58.5938	81.7094	58.5938	81.8008	58.5938	81.6565	58.5938	81.7403	58.5938	81.6078	58.5938	81.6817	58.5938	81.5646	58.5938	81.6272	58.5938	81.5284	58.5938	81.5787	58.5938	81.5002	58.5938	81.5379	58.5938	81.4812	58.5938	81.5061	58.5938	81.4719	58.5938	81.4843	58.5938	81.4728
60.0586	82.4419	60.0586	82.4325	60.0586	82.4419	60.0586	82.4141	60.0586	82.4327	60.0586	82.3872	60.0586	82.4145	60.0586	82.3526	60.0586	82.3881	60.0586	82.3117	60.0586	82.3542	60.0586	82.266	60.0586	82.3143	60.0586	82.2173	60.0586	82.2699	60.0586	82.1677	60.0586	82.2228	60.0586	82.1191	60.0586	82.1747	60.0586	82.0737	60.0586	82.1277	60.0586	82.0331	60.0586	82.0833	60.0586	81.9987	60.0586	82.043	60.0586	81.9711	60.0586	82.008	60.0586	81.9505	60.0586	81.979	60.0586	81.9362	60.0586	81.9564	60.0586	81.9274	60.0586	81.9401	60.0586	81.9236	60.0586	81.9296	60.0586	81.9242
62.9883	83.0883	62.9883	83.0875	62.9883	83.0752	62.9883	83.0728	62.9883	83.0484	62.9883	83.045	62.9883	83.0087	62.9883	83.0049	62.9883	82.9575	62.9883	82.954	62.9883	82.8965	62.9883	82.894	62.9883	82.8278	62.9883	82.8268	62.9883	82.7539	62.9883	82.7543	62.9883	82.6775	62.9883	82.6788	62.9883	82.6013	62.9883	82.6025	62.9883	82.5278	62.9883	82.5275	62.9883	82.4595	62.9883	82.4561	62.9883	82.3979	62.9883	82.3906	62.9883	82.3443	62.9883	82.3332	62.9883	82.2994	62.9883	82.286	62.9883	82.2637	62.9883	82.2507	62.9883	82.2379	62.9883	82.2284	62.9883	82.2227	62.9883	82.2193
64.4531	83.1715	64.4531	83.1701	64.4531	83.1615	64.4531	83.1576	64.4531	83.1405	64.4531	83.1343	64.4531	83.1091	64.4531	83.1012	64.4531	83.0684	64.4531	83.0594	64.4531	83.0196	64.4531	83.0103	64.4531	82.9643	64.4531	82.9555	64.4531	82.9044	64.4531	82.8967	64.4531	82.8419	64.4531	82.8356	64.4531	82.7789	64.4531	82.774	64.4531	82.7174	64.4531	82.7134	64.4531	82.6593	64.4531	82.6556	64.4531	82.6062	64.4531	82.602	64.4531	82.5594	64.4531	82.5544	64.4531	82.5199	64.4531	82.5144	64.4531	82.4887	64.4531	82.4835	64.4531	82.4667	64.4531	82.4629	64.4531	82.4546	64.4531	82.4533
67.3828	83.3639	67.3828	83.3598	67.3828	83.3587	67.3828	83.3468	67.3828	83.3446	67.3828	83.3255	67.3828	83.322	67.3828	83.2968	67.3828	83.2918	67.3828	83.262	67.3828	83.2551	67.3828	83.223	67.3828	83.2133	67.3828	83.1815	67.3828	83.1681	67.3828	83.1395	67.3828	83.1211	67.3828	83.0988	67.3828	83.0743	67.3828	83.0609	67.3828	83.0296	67.3828	83.0267	67.3828	82.9886	67.3828	82.9967	67.3828	82.9528	67.3828	82.9705	67.3828	82.9233	67.3828	82.9477	67.3828	82.9008	67.3828	82.9276	67.3828	82.8858	67.3828	82.91	67.3828	82.8783	67.3828	82.8952	67.3828	82.8781	67.3828	82.8841
