"SPL Vertical"
"On-Axis"		"10°"		"-10°"		"20°"		"-20°"		"30°"		"-30°"		"40°"		"-40°"		"50°"		"-50°"		"60°"		"-60°"		"70°"		"-70°"		"80°"		"-80°"		"90°"		"-90°"		"100°"		"-100°"		"110°"		"-110°"		"120°"		"-120°"		"130°"		"-130°"		"140°"		"-140°"		"150°"		"-150°"		"160°"		"-160°"		"170°"		"-170°"		"180°"
"Frequency / Hz"	"Sound Pressure Level / dB (re 20 µPa/V)  [2.83V at 1m]"	"Frequency / Hz"	"Sound Pressure Level / dB (re 20 µPa/V)  [2.83V at 1m]"	"Frequency / Hz"	"Sound Pressure Level / dB (re 20 µPa/V)  [2.83V at 1m]"	"Frequency / Hz"	"Sound Pressure Level / dB (re 20 µPa/V)  [2.83V at 1m]"	"Frequency / Hz"	"Sound Pressure Level / dB (re 20 µPa/V)  [2.83V at 1m]"	"Frequency / Hz"	"Sound Pressure Level / dB (re 20 µPa/V)  [2.83V at 1m]"	"Frequency / Hz"	"Sound Pressure Level / dB (re 20 µPa/V)  [2.83V at 1m]"	"Frequency / Hz"	"Sound Pressure Level / dB (re 20 µPa/V)  [2.83V at 1m]"	"Frequency / Hz"	"Sound Pressure Level / dB (re 20 µPa/V)  [2.83V at 1m]"	"Frequency / Hz"	"Sound Pressure Level / dB (re 20 µPa/V)  [2.83V at 1m]"	"Frequency / Hz"	"Sound Pressure Level / dB (re 20 µPa/V)  [2.83V at 1m]"	"Frequency / Hz"	"Sound Pressure Level / dB (re 20 µPa/V)  [2.83V at 1m]"	"Frequency / Hz"	"Sound Pressure Level / dB (re 20 µPa/V)  [2.83V at 1m]"	"Frequency / Hz"	"Sound Pressure Level / dB (re 20 µPa/V)  [2.83V at 1m]"	"Frequency / Hz"	"Sound Pressure Level / dB (re 20 µPa/V)  [2.83V at 1m]"	"Frequency / Hz"	"Sound Pressure Level / dB (re 20 µPa/V)  [2.83V at 1m]"	"Frequency / Hz"	"Sound Pressure Level / dB (re 20 µPa/V)  [2.83V at 1m]"	"Frequency / Hz"	"Sound Pressure Level / dB (re 20 µPa/V)  [2.83V at 1m]"	"Frequency / Hz"	"Sound Pressure Level / dB (re 20 µPa/V)  [2.83V at 1m]"	"Frequency / Hz"	"Sound Pressure Level / dB (re 20 µPa/V)  [2.83V at 1m]"	"Frequency / Hz"	"Sound Pressure Level / dB (re 20 µPa/V)  [2.83V at 1m]"	"Frequency / Hz"	"Sound Pressure Level / dB (re 20 µPa/V)  [2.83V at 1m]"	"Frequency / Hz"	"Sound Pressure Level / dB (re 20 µPa/V)  [2.83V at 1m]"	"Frequency / Hz"	"Sound Pressure Level / dB (re 20 µPa/V)  [2.83V at 1m]"	"Frequency / Hz"	"Sound Pressure Level / dB (re 20 µPa/V)  [2.83V at 1m]"	"Frequency / Hz"	"Sound Pressure Level / dB (re 20 µPa/V)  [2.83V at 1m]"	"Frequency / Hz"	"Sound Pressure Level / dB (re 20 µPa/V)  [2.83V at 1m]"	"Frequency / Hz"	"Sound Pressure Level / dB (re 20 µPa/V)  [2.83V at 1m]"	"Frequency / Hz"	"Sound Pressure Level / dB (re 20 µPa/V)  [2.83V at 1m]"	"Frequency / Hz"	"Sound Pressure Level / dB (re 20 µPa/V)  [2.83V at 1m]"	"Frequency / Hz"	"Sound Pressure Level / dB (re 20 µPa/V)  [2.83V at 1m]"	"Frequency / Hz"	"Sound Pressure Level / dB (re 20 µPa/V)  [2.83V at 1m]"	"Frequency / Hz"	"Sound Pressure Level / dB (re 20 µPa/V)  [2.83V at 1m]"	"Frequency / Hz"	"Sound Pressure Level / dB (re 20 µPa/V)  [2.83V at 1m]"	"Frequency / Hz"	"Sound Pressure Level / dB (re 20 µPa/V)  [2.83V at 1m]"	"Frequency / Hz"	"Sound Pressure Level / dB (re 20 µPa/V)  [2.83V at 1m]"
20.5078	38.8572	20.5078	38.9884	20.5078	38.7271	20.5078	39.112	20.5078	38.6072	20.5078	39.2199	20.5078	38.5059	20.5078	39.3058	20.5078	38.4301	20.5078	39.3657	20.5078	38.385	20.5078	39.3981	20.5078	38.373	20.5078	39.4047	20.5078	38.3942	20.5078	39.39	20.5078	38.4466	20.5078	39.3615	20.5078	38.5262	20.5078	39.3286	20.5078	38.6277	20.5078	39.301	20.5078	38.7448	20.5078	39.2869	20.5078	38.8707	20.5078	39.2907	20.5078	38.9977	20.5078	39.3114	20.5078	39.118	20.5078	39.3425	20.5078	39.2238	20.5078	39.3738	20.5078	39.3079	20.5078	39.394	20.5078	39.365	20.5078	39.3931
21.9727	49.6572	21.9727	49.8142	21.9727	49.5256	21.9727	49.9944	21.9727	49.4218	21.9727	50.1955	21.9727	49.3482	21.9727	50.4156	21.9727	49.3069	21.9727	50.6527	21.9727	49.2999	21.9727	50.9045	21.9727	49.3288	21.9727	51.1676	21.9727	49.3949	21.9727	51.4369	21.9727	49.4996	21.9727	51.7049	21.9727	49.6436	21.9727	51.9613	21.9727	49.8274	21.9727	52.1935	21.9727	50.0505	21.9727	52.3873	21.9727	50.3106	21.9727	52.5283	21.9727	50.6032	21.9727	52.6043	21.9727	50.9204	21.9727	52.6063	21.9727	51.2508	21.9727	52.5307	21.9727	51.5794	21.9727	52.3796	21.9727	51.8889	21.9727	52.1612
23.4375	47.5171	23.4375	47.6591	23.4375	47.3884	23.4375	47.8111	23.4375	47.2763	23.4375	47.9705	23.4375	47.184	23.4375	48.1344	23.4375	47.1143	23.4375	48.3008	23.4375	47.0695	23.4375	48.4672	23.4375	47.0514	23.4375	48.6311	23.4375	47.0613	23.4375	48.7892	23.4375	47.1	23.4375	48.937	23.4375	47.1682	23.4375	49.0688	23.4375	47.2662	23.4375	49.1777	23.4375	47.3939	23.4375	49.2563	23.4375	47.5504	23.4375	49.2973	23.4375	47.7335	23.4375	49.2944	23.4375	47.9389	23.4375	49.244	23.4375	48.1602	23.4375	49.1455	23.4375	48.3885	23.4375	49.0023	23.4375	48.613	23.4375	48.8215
24.9023	44.9695	24.9023	44.9762	24.9023	44.9538	24.9023	44.9718	24.9023	44.9313	24.9023	44.9543	24.9023	44.9037	24.9023	44.9224	24.9023	44.8722	24.9023	44.8759	24.9023	44.8373	24.9023	44.8154	24.9023	44.7991	24.9023	44.7432	24.9023	44.7574	24.9023	44.6624	24.9023	44.712	24.9023	44.5772	24.9023	44.6628	24.9023	44.4925	24.9023	44.6101	24.9023	44.413	24.9023	44.5546	24.9023	44.3432	24.9023	44.4976	24.9023	44.2863	24.9023	44.4407	24.9023	44.2445	24.9023	44.3859	24.9023	44.2183	24.9023	44.3352	24.9023	44.2073	24.9023	44.2905	24.9023	44.2106	24.9023	44.2538	24.9023	44.2266
26.3672	50.7945	26.3672	50.7865	26.3672	50.7989	26.3672	50.775	26.3672	50.7995	26.3672	50.7598	26.3672	50.7957	26.3672	50.7406	26.3672	50.7868	26.3672	50.717	26.3672	50.7721	26.3672	50.6886	26.3672	50.7508	26.3672	50.6553	26.3672	50.7225	26.3672	50.6173	26.3672	50.6871	26.3672	50.5751	26.3672	50.6449	26.3672	50.5298	26.3672	50.5968	26.3672	50.4827	26.3672	50.5443	26.3672	50.4356	26.3672	50.4897	26.3672	50.3905	26.3672	50.4356	26.3672	50.3497	26.3672	50.3849	26.3672	50.3153	26.3672	50.3408	26.3672	50.2897	26.3672	50.306	26.3672	50.2748	26.3672	50.2828	26.3672	50.2723
27.832	51.7194	27.832	51.7129	27.832	51.7141	27.832	51.693	27.832	51.6984	27.832	51.6584	27.832	51.6734	27.832	51.6081	27.832	51.6397	27.832	51.5415	27.832	51.5978	27.832	51.4592	27.832	51.5483	27.832	51.3629	27.832	51.4913	27.832	51.2556	27.832	51.4273	27.832	51.1413	27.832	51.3567	27.832	51.0254	27.832	51.2803	27.832	50.9138	27.832	51.1989	27.832	50.8128	27.832	51.114	27.832	50.7281	27.832	51.027	27.832	50.6646	27.832	50.9402	27.832	50.6256	27.832	50.8563	27.832	50.6123	27.832	50.7786	27.832	50.624	27.832	50.7111	27.832	50.6581
29.2969	52.6942	29.2969	52.7032	29.2969	52.6786	29.2969	52.705	29.2969	52.6566	29.2969	52.6993	29.2969	52.6286	29.2969	52.6854	29.2969	52.5948	29.2969	52.6628	29.2969	52.5555	29.2969	52.6312	29.2969	52.511	29.2969	52.5905	29.2969	52.462	29.2969	52.5412	29.2969	52.4093	29.2969	52.4842	29.2969	52.3539	29.2969	52.4209	29.2969	52.297	29.2969	52.3535	29.2969	52.2402	29.2969	52.2847	29.2969	52.1854	29.2969	52.2175	29.2969	52.1345	29.2969	52.1553	29.2969	52.0896	29.2969	52.1014	29.2969	52.0531	29.2969	52.0586	29.2969	52.0271	29.2969	52.0291	29.2969	52.0136	29.2969	52.014
30.7617	55.206	30.7617	55.1712	30.7617	55.226	30.7617	55.1218	30.7617	55.2308	30.7617	55.0581	30.7617	55.2203	30.7617	54.9806	30.7617	55.1945	30.7617	54.8901	30.7617	55.1532	30.7617	54.7873	30.7617	55.0966	30.7617	54.6739	30.7617	55.0252	30.7617	54.5516	30.7617	54.9394	30.7617	54.4234	30.7617	54.8404	30.7617	54.2929	30.7617	54.7295	30.7617	54.1648	30.7617	54.6087	30.7617	54.0449	30.7617	54.4806	30.7617	53.9395	30.7617	54.3487	30.7617	53.8551	30.7617	54.2176	30.7617	53.7974	30.7617	54.0926	30.7617	53.7708	30.7617	53.9798	30.7617	53.7773	30.7617	53.8858	30.7617	53.8167
32.2266	58.0951	32.2266	58.0934	32.2266	58.0931	32.2266	58.0879	32.2266	58.0873	32.2266	58.0785	32.2266	58.0782	32.2266	58.0653	32.2266	58.0657	32.2266	58.0486	32.2266	58.0503	32.2266	58.0286	32.2266	58.0322	32.2266	58.006	32.2266	58.012	32.2266	57.9814	32.2266	57.99	32.2266	57.9556	32.2266	57.967	32.2266	57.9297	32.2266	57.9435	32.2266	57.9046	32.2266	57.9202	32.2266	57.8814	32.2266	57.8979	32.2266	57.8609	32.2266	57.8772	32.2266	57.8438	32.2266	57.8587	32.2266	57.8308	32.2266	57.8431	32.2266	57.822	32.2266	57.8309	32.2266	57.8177	32.2266	57.8223	32.2266	57.8179
33.6914	59.2938	33.6914	59.2819	33.6914	59.2991	33.6914	59.2636	33.6914	59.2977	33.6914	59.2393	33.6914	59.2895	33.6914	59.2095	33.6914	59.2748	33.6914	59.1749	33.6914	59.2539	33.6914	59.1363	33.6914	59.2272	33.6914	59.0947	33.6914	59.1955	33.6914	59.0513	33.6914	59.1595	33.6914	59.0073	33.6914	59.1202	33.6914	58.9643	33.6914	59.0786	33.6914	58.9237	33.6914	59.036	33.6914	58.8871	33.6914	58.9935	33.6914	58.8558	33.6914	58.9525	33.6914	58.831	33.6914	58.9141	33.6914	58.8138	33.6914	58.8798	33.6914	58.8048	33.6914	58.8506	33.6914	58.8042	33.6914	58.8277	33.6914	58.812
35.1562	61.1367	35.1562	61.1253	35.1562	61.1442	35.1562	61.1103	35.1562	61.1473	35.1562	61.0924	35.1562	61.146	35.1562	61.072	35.1562	61.1403	35.1562	61.05	35.1562	61.1305	35.1562	61.027	35.1562	61.1169	35.1562	61.0038	35.1562	61.1	35.1562	60.9811	35.1562	61.0806	35.1562	60.9597	35.1562	61.0594	35.1562	60.9404	35.1562	61.0372	35.1562	60.9236	35.1562	61.0148	35.1562	60.9099	35.1562	60.9929	35.1562	60.8995	35.1562	60.9722	35.1562	60.8926	35.1562	60.9531	35.1562	60.8893	35.1562	60.936	35.1562	60.8895	35.1562	60.9212	35.1562	60.893	35.1562	60.909	35.1562	60.8995
36.6211	62.801	36.6211	62.7901	36.6211	62.8034	36.6211	62.7709	36.6211	62.7972	36.6211	62.7439	36.6211	62.7825	36.6211	62.7097	36.6211	62.7597	36.6211	62.6693	36.6211	62.7294	36.6211	62.6237	36.6211	62.6924	36.6211	62.5742	36.6211	62.6497	36.6211	62.5222	36.6211	62.6025	36.6211	62.4694	36.6211	62.5522	36.6211	62.4173	36.6211	62.5001	36.6211	62.3677	36.6211	62.448	36.6211	62.3221	36.6211	62.3972	36.6211	62.2822	36.6211	62.3496	36.6211	62.2491	36.6211	62.3064	36.6211	62.2242	36.6211	62.2693	36.6211	62.2083	36.6211	62.2393	36.6211	62.2018	36.6211	62.2176	36.6211	62.2049
38.0859	64.3646	38.0859	64.3541	38.0859	64.3671	38.0859	64.3359	38.0859	64.3616	38.0859	64.3106	38.0859	64.3482	38.0859	64.2789	38.0859	64.3272	38.0859	64.2416	38.0859	64.2992	38.0859	64.1998	38.0859	64.2649	38.0859	64.1547	38.0859	64.2253	38.0859	64.1075	38.0859	64.1816	38.0859	64.0597	38.0859	64.1349	38.0859	64.0127	38.0859	64.0867	38.0859	63.9678	38.0859	64.0385	38.0859	63.9265	38.0859	63.9917	38.0859	63.89	38.0859	63.9477	38.0859	63.8596	38.0859	63.9081	38.0859	63.8363	38.0859	63.8741	38.0859	63.821	38.0859	63.8468	38.0859	63.8142	38.0859	63.8274	38.0859	63.8164
39.5508	65.6899	39.5508	65.6711	39.5508	65.7026	39.5508	65.6468	39.5508	65.7086	39.5508	65.6178	39.5508	65.7079	39.5508	65.5852	39.5508	65.7005	39.5508	65.55	39.5508	65.6866	39.5508	65.5134	39.5508	65.6667	39.5508	65.4767	39.5508	65.6416	39.5508	65.441	39.5508	65.6121	39.5508	65.4073	39.5508	65.5792	39.5508	65.3767	39.5508	65.5441	39.5508	65.35	39.5508	65.5078	39.5508	65.3279	39.5508	65.4715	39.5508	65.3108	39.5508	65.4364	39.5508	65.2991	39.5508	65.4034	39.5508	65.2931	39.5508	65.3734	39.5508	65.2928	39.5508	65.3474	39.5508	65.2983	39.5508	65.3259	39.5508	65.3094
41.0156	66.8701	41.0156	66.8516	41.0156	66.8819	41.0156	66.8273	41.0156	66.8866	41.0156	66.7978	41.0156	66.8842	41.0156	66.7641	41.0156	66.8745	41.0156	66.7274	41.0156	66.858	41.0156	66.6888	41.0156	66.8351	41.0156	66.6497	41.0156	66.8067	41.0156	66.6111	41.0156	66.7736	41.0156	66.5743	41.0156	66.7369	41.0156	66.5404	41.0156	66.698	41.0156	66.5102	41.0156	66.6581	41.0156	66.4845	41.0156	66.6185	41.0156	66.464	41.0156	66.5805	41.0156	66.449	41.0156	66.5452	41.0156	66.44	41.0156	66.5138	41.0156	66.4371	41.0156	66.487	41.0156	66.4404	41.0156	66.4656	41.0156	66.4499
42.4805	68.2084	42.4805	68.1898	42.4805	68.2203	42.4805	68.1653	42.4805	68.2251	42.4805	68.1358	42.4805	68.2226	42.4805	68.1022	42.4805	68.2127	42.4805	68.0657	42.4805	68.1958	42.4805	68.0273	42.4805	68.1723	42.4805	67.9884	42.4805	68.1431	42.4805	67.9499	42.4805	68.1091	42.4805	67.9131	42.4805	68.0714	42.4805	67.8788	42.4805	68.0315	42.4805	67.848	42.4805	67.9905	42.4805	67.8214	42.4805	67.9499	42.4805	67.7996	42.4805	67.9109	42.4805	67.7833	42.4805	67.8749	42.4805	67.7729	42.4805	67.8429	42.4805	67.7686	42.4805	67.8159	42.4805	67.7707	42.4805	67.7946	42.4805	67.7794
43.9453	69.2066	43.9453	69.1905	43.9453	69.215	43.9453	69.1674	43.9453	69.2154	43.9453	69.138	43.9453	69.2078	43.9453	69.1035	43.9453	69.1923	43.9453	69.065	43.9453	69.1694	43.9453	69.0237	43.9453	69.14	43.9453	68.981	43.9453	69.1051	43.9453	68.9383	43.9453	69.0657	43.9453	68.8968	43.9453	69.0234	43.9453	68.8577	43.9453	68.9794	43.9453	68.8222	43.9453	68.9354	43.9453	68.7911	43.9453	68.8928	43.9453	68.7651	43.9453	68.8528	43.9453	68.7449	43.9453	68.8168	43.9453	68.7308	43.9453	68.7856	43.9453	68.7232	43.9453	68.7601	43.9453	68.7223	43.9453	68.7409	43.9453	68.7282
45.4102	70.1035	45.4102	70.0882	45.4102	70.1107	45.4102	70.0656	45.4102	70.1096	45.4102	70.0364	45.4102	70.1003	45.4102	70.0015	45.4102	70.0829	45.4102	69.9622	45.4102	70.058	45.4102	69.9199	45.4102	70.0265	45.4102	69.8758	45.4102	69.9895	45.4102	69.8313	45.4102	69.9481	45.4102	69.7878	45.4102	69.9039	45.4102	69.7466	45.4102	69.8582	45.4102	69.7088	45.4102	69.8126	45.4102	69.6754	45.4102	69.7685	45.4102	69.6471	45.4102	69.7275	45.4102	69.6248	45.4102	69.6906	45.4102	69.6087	45.4102	69.6589	45.4102	69.5995	45.4102	69.6332	45.4102	69.5972	45.4102	69.6142	45.4102	69.6021
46.875	70.9552	46.875	70.9403	46.875	70.9623	46.875	70.9183	46.875	70.9613	46.875	70.8897	46.875	70.9522	46.875	70.8558	46.875	70.9353	46.875	70.8176	46.875	70.9112	46.875	70.7764	46.875	70.8806	46.875	70.7335	46.875	70.8446	46.875	70.6903	46.875	70.8045	46.875	70.6481	46.875	70.7615	46.875	70.6082	46.875	70.7171	46.875	70.5716	46.875	70.6729	46.875	70.5392	46.875	70.6302	46.875	70.5119	46.875	70.5903	46.875	70.4903	46.875	70.5545	46.875	70.4749	46.875	70.5238	46.875	70.4659	46.875	70.4988	46.875	70.4638	46.875	70.4803	46.875	70.4686
48.3398	71.7678	48.3398	71.7533	48.3398	71.7741	48.3398	71.7311	48.3398	71.772	48.3398	71.702	48.3398	71.7614	48.3398	71.6671	48.3398	71.7428	48.3398	71.6275	48.3398	71.7167	48.3398	71.5846	48.3398	71.684	48.3398	71.5398	48.3398	71.6458	48.3398	71.4944	48.3398	71.6035	48.3398	71.4499	48.3398	71.5583	48.3398	71.4076	48.3398	71.5119	48.3398	71.3685	48.3398	71.4657	48.3398	71.3338	48.3398	71.4212	48.3398	71.3043	48.3398	71.3798	48.3398	71.2808	48.3398	71.3427	48.3398	71.2636	48.3398	71.3108	48.3398	71.2534	48.3398	71.2852	48.3398	71.2503	48.3398	71.2663	48.3398	71.2547
51.2695	73.132	51.2695	73.1173	51.2695	73.1383	51.2695	73.0948	51.2695	73.1362	51.2695	73.0655	51.2695	73.1255	51.2695	73.0304	51.2695	73.1066	51.2695	72.9907	51.2695	73.0802	51.2695	72.9478	51.2695	73.0473	51.2695	72.9033	51.2695	73.0089	51.2695	72.8585	51.2695	72.9666	51.2695	72.8148	51.2695	72.9217	51.2695	72.7736	51.2695	72.8759	51.2695	72.7359	51.2695	72.8306	51.2695	72.7027	51.2695	72.7873	51.2695	72.6747	51.2695	72.7473	51.2695	72.6525	51.2695	72.7117	51.2695	72.6366	51.2695	72.6814	51.2695	72.6271	51.2695	72.6572	51.2695	72.6244	51.2695	72.6395	51.2695	72.6285
52.7344	73.7921	52.7344	73.7776	52.7344	73.7983	52.7344	73.7554	52.7344	73.796	52.7344	73.7262	52.7344	73.7851	52.7344	73.6911	52.7344	73.7662	52.7344	73.6514	52.7344	73.7398	52.7344	73.6086	52.7344	73.7071	52.7344	73.564	52.7344	73.6691	52.7344	73.5192	52.7344	73.6273	52.7344	73.4757	52.7344	73.5831	52.7344	73.4346	52.7344	73.538	52.7344	73.3973	52.7344	73.4936	52.7344	73.3645	52.7344	73.4511	52.7344	73.3371	52.7344	73.4119	52.7344	73.3156	52.7344	73.377	52.7344	73.3004	52.7344	73.3472	52.7344	73.2916	52.7344	73.3232	52.7344	73.2895	52.7344	73.3054	52.7344	73.2941
54.1992	74.4266	54.1992	74.4126	54.1992	74.4321	54.1992	74.3907	54.1992	74.4289	54.1992	74.3616	54.1992	74.4172	54.1992	74.3265	54.1992	74.3972	54.1992	74.2866	54.1992	74.3699	54.1992	74.2433	54.1992	74.3361	54.1992	74.1983	54.1992	74.2972	54.1992	74.1529	54.1992	74.2546	54.1992	74.1088	54.1992	74.2097	54.1992	74.0672	54.1992	74.1642	54.1992	74.0293	54.1992	74.1196	54.1992	73.996	54.1992	74.0771	54.1992	73.9682	54.1992	74.0382	54.1992	73.9463	54.1992	74.0036	54.1992	73.9307	54.1992	73.9744	54.1992	73.9216	54.1992	73.9509	54.1992	73.919	54.1992	73.9338	54.1992	73.9231
55.6641	75.0104	55.6641	74.9964	55.6641	75.0156	55.6641	74.9742	55.6641	75.0118	55.6641	74.9446	55.6641	74.9991	55.6641	74.9088	55.6641	74.9781	55.6641	74.868	55.6641	74.9494	55.6641	74.8238	55.6641	74.9141	55.6641	74.7777	55.6641	74.8736	55.6641	74.7313	55.6641	74.8293	55.6641	74.6861	55.6641	74.7829	55.6641	74.6434	55.6641	74.736	55.6641	74.6045	55.6641	74.6901	55.6641	74.5702	55.6641	74.6466	55.6641	74.5414	55.6641	74.6069	55.6641	74.5186	55.6641	74.572	55.6641	74.5021	55.6641	74.5425	55.6641	74.4921	55.6641	74.5192	55.6641	74.4888	55.6641	74.5024	55.6641	74.4922
58.5938	76.0975	58.5938	76.0836	58.5938	76.1022	58.5938	76.0611	58.5938	76.0977	58.5938	76.0311	58.5938	76.084	58.5938	75.9945	58.5938	76.0616	58.5938	75.9529	58.5938	76.0314	58.5938	75.9078	58.5938	75.9945	58.5938	75.8608	58.5938	75.9524	58.5938	75.8136	58.5938	75.9067	58.5938	75.7676	58.5938	75.859	58.5938	75.7244	58.5938	75.8111	58.5938	75.6851	58.5938	75.7645	58.5938	75.6506	58.5938	75.7208	58.5938	75.6215	58.5938	75.6811	58.5938	75.5984	58.5938	75.6465	58.5938	75.5816	58.5938	75.6177	58.5938	75.5712	58.5938	75.5952	58.5938	75.5673	58.5938	75.5793	58.5938	75.5699
60.0586	76.5988	60.0586	76.5839	60.0586	76.6042	60.0586	76.5603	60.0586	76.5999	60.0586	76.5287	60.0586	76.5861	60.0586	76.4905	60.0586	76.5633	60.0586	76.4471	60.0586	76.5324	60.0586	76.4003	60.0586	76.4947	60.0586	76.3517	60.0586	76.4515	60.0586	76.3032	60.0586	76.4046	60.0586	76.2562	60.0586	76.3557	60.0586	76.2123	60.0586	76.3067	60.0586	76.1727	60.0586	76.2591	60.0586	76.1383	60.0586	76.2145	60.0586	76.1096	60.0586	76.1742	60.0586	76.0871	60.0586	76.1391	60.0586	76.0709	60.0586	76.1099	60.0586	76.0612	60.0586	76.0871	60.0586	76.0579	60.0586	76.0708	60.0586	76.0611
62.9883	77.4388	62.9883	77.4204	62.9883	77.4473	62.9883	77.3927	62.9883	77.4455	62.9883	77.3567	62.9883	77.4336	62.9883	77.3137	62.9883	77.4119	62.9883	77.2652	62.9883	77.3814	62.9883	77.213	62.9883	77.3432	62.9883	77.1588	62.9883	77.2987	62.9883	77.1045	62.9883	77.2496	62.9883	77.0519	62.9883	77.1976	62.9883	77.0026	62.9883	77.1444	62.9883	76.9581	62.9883	77.0919	62.9883	76.9196	62.9883	77.0415	62.9883	76.8879	62.9883	76.9947	62.9883	76.8639	62.9883	76.9527	62.9883	76.8477	62.9883	76.9164	62.9883	76.8397	62.9883	76.8864	62.9883	76.8398	62.9883	76.8634	62.9883	76.8477
64.4531	77.9655	64.4531	77.9457	64.4531	77.9751	64.4531	77.9165	64.4531	77.9743	64.4531	77.8788	64.4531	77.9631	64.4531	77.8341	64.4531	77.942	64.4531	77.7839	64.4531	77.9118	64.4531	77.73	64.4531	77.8738	64.4531	77.6743	64.4531	77.8293	64.4531	77.6188	64.4531	77.7799	64.4531	77.5652	64.4531	77.7275	64.4531	77.5152	64.4531	77.6738	64.4531	77.4705	64.4531	77.6206	64.4531	77.4321	64.4531	77.5694	64.4531	77.401	64.4531	77.5216	64.4531	77.3778	64.4531	77.4784	64.4531	77.3629	64.4531	77.4407	64.4531	77.3563	64.4531	77.4093	64.4531	77.3579	64.4531	77.3847	64.4531	77.3674
67.3828	78.8292	67.3828	78.8068	67.3828	78.8417	67.3828	78.7753	67.3828	78.8441	67.3828	78.7357	67.3828	78.8363	67.3828	78.6894	67.3828	78.8189	67.3828	78.6381	67.3828	78.7924	67.3828	78.5835	67.3828	78.7581	67.3828	78.5277	67.3828	78.7172	67.3828	78.4726	67.3828	78.6712	67.3828	78.4201	67.3828	78.6217	67.3828	78.3719	67.3828	78.5704	67.3828	78.3295	67.3828	78.5189	67.3828	78.2941	67.3828	78.4685	67.3828	78.2665	67.3828	78.4207	67.3828	78.2473	67.3828	78.3766	67.3828	78.2366	67.3828	78.3371	67.3828	78.2344	67.3828	78.3031	67.3828	78.2404	67.3828	78.2753	67.3828	78.2542
