"SPL Vertical"
"On-Axis"		"10°"		"-10°"		"20°"		"-20°"		"30°"		"-30°"		"40°"		"-40°"		"50°"		"-50°"		"60°"		"-60°"		"70°"		"-70°"		"80°"		"-80°"		"90°"		"-90°"		"100°"		"-100°"		"110°"		"-110°"		"120°"		"-120°"		"130°"		"-130°"		"140°"		"-140°"		"150°"		"-150°"		"160°"		"-160°"		"170°"		"-170°"		"180°"
"Frequency / Hz"	"Sound Pressure Level / dB (re 20 µPa/V)   /[0.3V at 1m]"	"Frequency / Hz"	"Sound Pressure Level / dB (re 20 µPa/V)   /[0.3V at 1m]"	"Frequency / Hz"	"Sound Pressure Level / dB (re 20 µPa/V)   /[0.3V at 1m]"	"Frequency / Hz"	"Sound Pressure Level / dB (re 20 µPa/V)   /[0.3V at 1m]"	"Frequency / Hz"	"Sound Pressure Level / dB (re 20 µPa/V)   /[0.3V at 1m]"	"Frequency / Hz"	"Sound Pressure Level / dB (re 20 µPa/V)   /[0.3V at 1m]"	"Frequency / Hz"	"Sound Pressure Level / dB (re 20 µPa/V)   /[0.3V at 1m]"	"Frequency / Hz"	"Sound Pressure Level / dB (re 20 µPa/V)   /[0.3V at 1m]"	"Frequency / Hz"	"Sound Pressure Level / dB (re 20 µPa/V)   /[0.3V at 1m]"	"Frequency / Hz"	"Sound Pressure Level / dB (re 20 µPa/V)   /[0.3V at 1m]"	"Frequency / Hz"	"Sound Pressure Level / dB (re 20 µPa/V)   /[0.3V at 1m]"	"Frequency / Hz"	"Sound Pressure Level / dB (re 20 µPa/V)   /[0.3V at 1m]"	"Frequency / Hz"	"Sound Pressure Level / dB (re 20 µPa/V)   /[0.3V at 1m]"	"Frequency / Hz"	"Sound Pressure Level / dB (re 20 µPa/V)   /[0.3V at 1m]"	"Frequency / Hz"	"Sound Pressure Level / dB (re 20 µPa/V)   /[0.3V at 1m]"	"Frequency / Hz"	"Sound Pressure Level / dB (re 20 µPa/V)   /[0.3V at 1m]"	"Frequency / Hz"	"Sound Pressure Level / dB (re 20 µPa/V)   /[0.3V at 1m]"	"Frequency / Hz"	"Sound Pressure Level / dB (re 20 µPa/V)   /[0.3V at 1m]"	"Frequency / Hz"	"Sound Pressure Level / dB (re 20 µPa/V)   /[0.3V at 1m]"	"Frequency / Hz"	"Sound Pressure Level / dB (re 20 µPa/V)   /[0.3V at 1m]"	"Frequency / Hz"	"Sound Pressure Level / dB (re 20 µPa/V)   /[0.3V at 1m]"	"Frequency / Hz"	"Sound Pressure Level / dB (re 20 µPa/V)   /[0.3V at 1m]"	"Frequency / Hz"	"Sound Pressure Level / dB (re 20 µPa/V)   /[0.3V at 1m]"	"Frequency / Hz"	"Sound Pressure Level / dB (re 20 µPa/V)   /[0.3V at 1m]"	"Frequency / Hz"	"Sound Pressure Level / dB (re 20 µPa/V)   /[0.3V at 1m]"	"Frequency / Hz"	"Sound Pressure Level / dB (re 20 µPa/V)   /[0.3V at 1m]"	"Frequency / Hz"	"Sound Pressure Level / dB (re 20 µPa/V)   /[0.3V at 1m]"	"Frequency / Hz"	"Sound Pressure Level / dB (re 20 µPa/V)   /[0.3V at 1m]"	"Frequency / Hz"	"Sound Pressure Level / dB (re 20 µPa/V)   /[0.3V at 1m]"	"Frequency / Hz"	"Sound Pressure Level / dB (re 20 µPa/V)   /[0.3V at 1m]"	"Frequency / Hz"	"Sound Pressure Level / dB (re 20 µPa/V)   /[0.3V at 1m]"	"Frequency / Hz"	"Sound Pressure Level / dB (re 20 µPa/V)   /[0.3V at 1m]"	"Frequency / Hz"	"Sound Pressure Level / dB (re 20 µPa/V)   /[0.3V at 1m]"	"Frequency / Hz"	"Sound Pressure Level / dB (re 20 µPa/V)   /[0.3V at 1m]"	"Frequency / Hz"	"Sound Pressure Level / dB (re 20 µPa/V)   /[0.3V at 1m]"	"Frequency / Hz"	"Sound Pressure Level / dB (re 20 µPa/V)   /[0.3V at 1m]"
20.5078	47.4309	20.5078	47.3225	20.5078	47.5375	20.5078	47.2152	20.5078	47.6394	20.5078	47.1115	20.5078	47.7336	20.5078	47.014	20.5078	47.817	20.5078	46.9248	20.5078	47.8868	20.5078	46.8461	20.5078	47.9403	20.5078	46.7798	20.5078	47.975	20.5078	46.7277	20.5078	47.9894	20.5078	46.6912	20.5078	47.9821	20.5078	46.6718	20.5078	47.9528	20.5078	46.6706	20.5078	47.9021	20.5078	46.6882	20.5078	47.8312	20.5078	46.7249	20.5078	47.7426	20.5078	46.7805	20.5078	47.6393	20.5078	46.8539	20.5078	47.5251	20.5078	46.9435	20.5078	47.4042	20.5078	47.0468	20.5078	47.2812	20.5078	47.1606
21.9727	46.2333	21.9727	46.1269	21.9727	46.3395	21.9727	46.0234	21.9727	46.4424	21.9727	45.9254	21.9727	46.5388	21.9727	45.8354	21.9727	46.6256	21.9727	45.7557	21.9727	46.6997	21.9727	45.6882	21.9727	46.7584	21.9727	45.6347	21.9727	46.7993	21.9727	45.5963	21.9727	46.8207	21.9727	45.5741	21.9727	46.8214	21.9727	45.5689	21.9727	46.801	21.9727	45.581	21.9727	46.7601	21.9727	45.6104	21.9727	46.7	21.9727	45.6568	21.9727	46.6229	21.9727	45.7191	21.9727	46.5314	21.9727	45.7962	21.9727	46.429	21.9727	45.8861	21.9727	46.3195	21.9727	45.9864	21.9727	46.2066	21.9727	46.0944
23.4375	46.0822	23.4375	45.9612	23.4375	46.1931	23.4375	45.8331	23.4375	46.2906	23.4375	45.7011	23.4375	46.3718	23.4375	45.5683	23.4375	46.4338	23.4375	45.4379	23.4375	46.4741	23.4375	45.3128	23.4375	46.4907	23.4375	45.1961	23.4375	46.482	23.4375	45.0907	23.4375	46.4474	23.4375	44.9997	23.4375	46.3869	23.4375	44.926	23.4375	46.3017	23.4375	44.8721	23.4375	46.194	23.4375	44.8406	23.4375	46.067	23.4375	44.8335	23.4375	45.925	23.4375	44.8521	23.4375	45.7729	23.4375	44.8969	23.4375	45.6164	23.4375	44.9677	23.4375	45.4615	23.4375	45.0628	23.4375	45.314	23.4375	45.1795
24.9023	44.2521	24.9023	44.1583	24.9023	44.3452	24.9023	44.067	24.9023	44.4346	24.9023	43.9811	24.9023	44.5172	24.9023	43.9034	24.9023	44.5902	24.9023	43.8363	24.9023	44.6511	24.9023	43.7818	24.9023	44.6979	24.9023	43.7415	24.9023	44.7293	24.9023	43.7165	24.9023	44.7443	24.9023	43.7072	24.9023	44.7427	24.9023	43.7138	24.9023	44.7252	24.9023	43.7356	24.9023	44.6925	24.9023	43.7718	24.9023	44.6463	24.9023	43.8208	24.9023	44.5882	24.9023	43.8811	24.9023	44.5205	24.9023	43.9506	24.9023	44.445	24.9023	44.0274	24.9023	44.364	24.9023	44.1092	24.9023	44.2797	24.9023	44.194
26.3672	42.9304	26.3672	42.7945	26.3672	43.0351	26.3672	42.6305	26.3672	43.1054	26.3672	42.4419	26.3672	43.1385	26.3672	42.2323	26.3672	43.132	26.3672	42.0056	26.3672	43.0843	26.3672	41.766	26.3672	42.9941	26.3672	41.5182	26.3672	42.8616	26.3672	41.2675	26.3672	42.688	26.3672	41.0197	26.3672	42.4761	26.3672	40.7817	26.3672	42.2305	26.3672	40.5609	26.3672	41.9576	26.3672	40.3656	26.3672	41.6658	26.3672	40.2043	26.3672	41.3654	26.3672	40.0854	26.3672	41.0681	26.3672	40.0165	26.3672	40.7866	26.3672	40.0038	26.3672	40.5334	26.3672	40.0506	26.3672	40.3205	26.3672	40.1573
27.832	43.2812	27.832	43.1445	27.832	43.3822	27.832	42.9757	27.832	43.4441	27.832	42.7785	27.832	43.464	27.832	42.5571	27.832	43.4393	27.832	42.3155	27.832	43.3684	27.832	42.0586	27.832	43.2504	27.832	41.7914	27.832	43.0858	27.832	41.5194	27.832	42.8764	27.832	41.249	27.832	42.6263	27.832	40.9871	27.832	42.3414	27.832	40.7413	27.832	42.03	27.832	40.5197	27.832	41.7029	27.832	40.331	27.832	41.3726	27.832	40.1837	27.832	41.053	27.832	40.086	27.832	40.7586	27.832	40.0447	27.832	40.5027	27.832	40.065	27.832	40.2968	27.832	40.1494
29.2969	43.7358	29.2969	43.5876	29.2969	43.8373	29.2969	43.3962	29.2969	43.8889	29.2969	43.165	29.2969	43.8876	29.2969	42.8979	29.2969	43.8309	29.2969	42.599	29.2969	43.7169	29.2969	42.2727	29.2969	43.5445	29.2969	41.9244	29.2969	43.3139	29.2969	41.5603	29.2969	43.0273	29.2969	41.1877	29.2969	42.6887	29.2969	40.8157	29.2969	42.3048	29.2969	40.4548	29.2969	41.8855	29.2969	40.1175	29.2969	41.4441	29.2969	39.8175	29.2969	40.9969	29.2969	39.5698	29.2969	40.5632	29.2969	39.3892	29.2969	40.164	29.2969	39.2892	29.2969	39.8201	29.2969	39.2802	29.2969	39.5499	29.2969	39.3674
30.7617	44.4882	30.7617	44.3374	30.7617	44.587	30.7617	44.1383	30.7617	44.6304	30.7617	43.8946	30.7617	44.6154	30.7617	43.6104	30.7617	44.5391	30.7617	43.2903	30.7617	44.3998	30.7617	42.9392	30.7617	44.1965	30.7617	42.5631	30.7617	43.9298	30.7617	42.169	30.7617	43.6023	30.7617	41.7651	30.7617	43.2191	30.7617	41.3614	30.7617	42.7885	30.7617	40.9692	30.7617	42.3227	30.7617	40.6017	30.7617	41.8376	30.7617	40.273	30.7617	41.3528	30.7617	39.9978	30.7617	40.8907	30.7617	39.7906	30.7617	40.4746	30.7617	39.6647	30.7617	40.1262	30.7617	39.6309	30.7617	39.8629	30.7617	39.6963
32.2266	44.2417	32.2266	44.0678	32.2266	44.3443	32.2266	43.8259	32.2266	44.3721	32.2266	43.5191	32.2266	44.3216	32.2266	43.1506	32.2266	44.1894	32.2266	42.7236	32.2266	43.9722	32.2266	42.2422	32.2266	43.6677	32.2266	41.7113	32.2266	43.2745	32.2266	41.1377	32.2266	42.7936	32.2266	40.5305	32.2266	42.2286	32.2266	39.9023	32.2266	41.5876	32.2266	39.2696	32.2266	40.8842	32.2266	38.6535	32.2266	40.1396	32.2266	38.0792	32.2266	39.3831	32.2266	37.5752	32.2266	38.6527	32.2266	37.171	32.2266	37.9919	32.2266	36.895	32.2266	37.4441	32.2266	36.7719	32.2266	37.0458	32.2266	36.8196
33.6914	45.06	33.6914	44.8764	33.6914	45.1611	33.6914	44.6131	33.6914	45.1762	33.6914	44.2725	33.6914	45.1016	33.6914	43.8565	33.6914	44.9331	33.6914	43.367	33.6914	44.6664	33.6914	42.8061	33.6914	44.2976	33.6914	42.1766	33.6914	43.8233	33.6914	41.483	33.6914	43.2419	33.6914	40.7328	33.6914	42.5545	33.6914	39.9375	33.6914	41.7661	33.6914	39.115	33.6914	40.8887	33.6914	38.2906	33.6914	39.9432	33.6914	37.4986	33.6914	38.9638	33.6914	36.7808	33.6914	37.9993	33.6914	36.1841	33.6914	37.1128	33.6914	35.7554	33.6914	36.3736	33.6914	35.537	33.6914	35.8434	33.6914	35.5612
35.1562	44.9779	35.1562	44.7702	35.1562	45.0797	35.1562	44.4582	35.1562	45.072	35.1562	44.0425	35.1562	44.9501	35.1562	43.5216	35.1562	44.7077	35.1562	42.8932	35.1562	44.3372	35.1562	42.1532	35.1562	43.8297	35.1562	41.2971	35.1562	43.1752	35.1562	40.3205	35.1562	42.3631	35.1562	39.2212	35.1562	41.3829	35.1562	38.0026	35.1562	40.2257	35.1562	36.6797	35.1562	38.8882	35.1562	35.2887	35.1562	37.3797	35.1562	33.8976	35.1562	35.7367	35.1562	32.6084	35.1562	34.0462	35.1562	31.5358	35.1562	32.4686	35.1562	30.76	35.1562	31.2172	35.1562	30.3041	35.1562	30.4525	35.1562	30.1796
36.6211	45.8556	36.6211	45.6358	36.6211	45.9552	36.6211	45.2968	36.6211	45.9317	36.6211	44.8369	36.6211	45.7793	36.6211	44.2513	36.6211	45.4902	36.6211	43.5325	36.6211	45.0538	36.6211	42.6689	36.6211	44.4567	36.6211	41.6444	36.6211	43.6819	36.6211	40.4374	36.6211	42.7082	36.6211	39.0193	36.6211	41.5082	36.6211	37.3531	36.6211	40.0466	36.6211	35.3928	36.6211	38.2765	36.6211	33.089	36.6211	36.1343	36.6211	30.4148	36.6211	33.5354	36.6211	27.4644	36.6211	30.3815	36.6211	24.6918	36.6211	26.6562	36.6211	22.8932	36.6211	22.9461	36.6211	22.0911	36.6211	21.1564	36.6211	21.4687
38.0859	46.7121	38.0859	46.4647	38.0859	46.8193	38.0859	46.08	38.0859	46.7829	38.0859	45.5618	38.0859	46.5996	38.0859	44.9174	38.0859	46.267	38.0859	44.1633	38.0859	45.7875	38.0859	43.3359	38.0859	45.1742	38.0859	42.5084	38.0859	44.4631	38.0859	41.8059	38.0859	43.7301	38.0859	41.3917	38.0859	43.1045	38.0859	41.3909	38.0859	42.7484	38.0859	41.7949	38.0859	42.7712	38.0859	42.4656	38.0859	43.1428	38.0859	43.2338	38.0859	43.7163	38.0859	43.9715	38.0859	44.3294	38.0859	44.6024	38.0859	44.8669	38.0859	45.086	38.0859	45.2645	38.0859	45.4013	38.0859	45.492	38.0859	45.5381
39.5508	47.9012	39.5508	47.6723	39.5508	47.9968	39.5508	47.316	39.5508	47.9554	39.5508	46.8422	39.5508	47.7756	39.5508	46.2687	39.5508	47.4605	39.5508	45.6287	39.5508	47.0225	39.5508	44.9808	39.5508	46.4922	39.5508	44.4188	39.5508	45.9303	39.5508	44.0636	39.5508	45.4384	39.5508	44.0206	39.5508	45.1472	39.5508	44.3167	39.5508	45.1629	39.5508	44.8791	39.5508	45.4955	39.5508	45.5834	39.5508	46.0492	39.5508	46.3138	39.5508	46.6874	39.5508	46.9885	39.5508	47.2955	39.5508	47.5579	39.5508	47.8005	39.5508	47.9935	39.5508	48.1636	39.5508	48.2791	39.5508	48.3671	39.5508	48.4053
41.0156	49.3347	41.0156	49.1344	41.0156	49.4168	41.0156	48.8246	41.0156	49.3765	41.0156	48.421	41.0156	49.2151	41.0156	47.9502	41.0156	48.9418	41.0156	47.4556	41.0156	48.579	41.0156	47.003	41.0156	48.1703	41.0156	46.6789	41.0156	47.7885	41.0156	46.5705	41.0156	47.5321	41.0156	46.7279	41.0156	47.498	41.0156	47.1351	41.0156	47.7307	41.0156	47.7186	41.0156	48.1922	41.0156	48.3851	41.0156	48.7853	41.0156	49.0528	41.0156	49.4044	41.0156	49.6631	41.0156	49.9685	41.0156	50.1781	41.0156	50.4264	41.0156	50.5744	41.0156	50.7507	41.0156	50.8371	41.0156	50.9288	41.0156	50.957
42.4805	50.9301	42.4805	50.763	42.4805	50.9999	42.4805	50.5096	42.4805	50.9683	42.4805	50.1897	42.4805	50.8396	42.4805	49.8348	42.4805	50.6282	42.4805	49.4911	42.4805	50.3636	42.4805	49.2193	42.4805	50.0957	42.4805	49.0863	42.4805	49.8945	42.4805	49.1451	42.4805	49.8381	42.4805	49.4121	42.4805	49.9833	42.4805	49.8583	42.4805	50.3349	42.4805	50.423	42.4805	50.8415	42.4805	51.0377	42.4805	51.422	42.4805	51.6428	42.4805	51.9977	42.4805	52.194	42.4805	52.5094	42.4805	52.6605	42.4805	52.9193	42.4805	53.0219	42.4805	53.2062	42.4805	53.2645	42.4805	53.3604	42.4805	53.3792
43.9453	52.5723	43.9453	52.4329	43.9453	52.6322	43.9453	52.2258	43.9453	52.6091	43.9453	51.9722	43.9453	52.5088	43.9453	51.7041	43.9453	52.3485	43.9453	51.4651	43.9453	52.1602	43.9453	51.3071	43.9453	51.9926	43.9453	51.281	43.9453	51.9076	43.9453	51.4208	43.9453	51.9647	43.9453	51.7296	43.9453	52.1973	43.9453	52.1779	43.9453	52.5945	43.9453	52.7159	43.9453	53.1058	43.9453	53.2888	43.9453	53.663	43.9453	53.8487	43.9453	54.2025	43.9453	54.3584	43.9453	54.6763	43.9453	54.7913	43.9453	55.0532	43.9453	55.1284	43.9453	55.3153	43.9453	55.3566	43.9453	55.4539	43.9453	55.467
45.4102	54.7087	45.4102	54.5989	45.4102	54.7617	45.4102	54.443	45.4102	54.7554	45.4102	54.2599	45.4102	54.6962	45.4102	54.0768	45.4102	54.6006	45.4102	53.9281	45.4102	54.4971	45.4102	53.8519	45.4102	54.4251	45.4102	53.8825	45.4102	54.4295	45.4102	54.0406	45.4102	54.5486	45.4102	54.3262	45.4102	54.7996	45.4102	54.7183	45.4102	55.1693	45.4102	55.1813	45.4102	55.6192	45.4102	55.675	45.4102	56.0988	45.4102	56.1616	45.4102	56.5598	45.4102	56.6098	45.4102	56.9638	45.4102	56.9953	45.4102	57.2842	45.4102	57.3	45.4102	57.5046	45.4102	57.5106	45.4102	57.6167	45.4102	57.618
46.875	56.5975	46.875	56.5069	46.875	56.6456	46.875	56.3833	46.875	56.6496	46.875	56.2433	46.875	56.6156	46.875	56.1103	46.875	56.5594	46.875	56.0126	46.875	56.5058	46.875	55.9803	46.875	56.4878	46.875	56.0389	46.875	56.5401	46.875	56.2034	46.875	56.6903	46.875	56.4727	46.875	56.9477	46.875	56.8303	46.875	57.299	46.875	57.2479	46.875	57.7118	46.875	57.6931	46.875	58.1449	46.875	58.134	46.875	58.5581	46.875	58.5431	46.875	58.9187	46.875	58.8979	46.875	59.2033	46.875	59.1813	46.875	59.397	46.875	59.3803	46.875	59.4919	46.875	59.4857
48.3398	58.5148	48.3398	58.4342	48.3398	58.5627	48.3398	58.3288	48.3398	58.5764	48.3398	58.2126	48.3398	58.5618	48.3398	58.1051	48.3398	58.5325	48.3398	58.0297	48.3398	58.5095	48.3398	58.0106	48.3398	58.5193	48.3398	58.0686	48.3398	58.5892	48.3398	58.2158	48.3398	58.7398	48.3398	58.4526	48.3398	58.9775	48.3398	58.7665	48.3398	59.2913	48.3398	59.1354	48.3398	59.6551	48.3398	59.5324	48.3398	60.035	48.3398	59.9299	48.3398	60.3974	48.3398	60.3029	48.3398	60.7134	48.3398	60.6303	48.3398	60.9616	48.3398	60.8952	48.3398	61.1281	48.3398	61.0849	48.3398	61.205	48.3398	61.19
51.2695	62.015	51.2695	61.9521	51.2695	62.0614	51.2695	61.878	51.2695	62.0906	51.2695	61.8028	51.2695	62.1072	51.2695	61.7397	51.2695	62.1211	51.2695	61.7044	51.2695	62.1467	51.2695	61.7125	51.2695	62.2009	51.2695	61.7771	51.2695	62.2999	51.2695	61.9061	51.2695	62.4549	51.2695	62.0999	51.2695	62.6676	51.2695	62.3513	51.2695	62.9292	51.2695	62.6462	51.2695	63.2216	51.2695	62.966	51.2695	63.5214	51.2695	63.2907	51.2695	63.8042	51.2695	63.6006	51.2695	64.0486	51.2695	63.8779	51.2695	64.2375	51.2695	64.1076	51.2695	64.3592	51.2695	64.2777	51.2695	64.4072	51.2695	64.3794
52.7344	63.5338	52.7344	63.4755	52.7344	63.5802	52.7344	63.4101	52.7344	63.6143	52.7344	63.3459	52.7344	63.6402	52.7344	63.2943	52.7344	63.6664	52.7344	63.2682	52.7344	63.7048	52.7344	63.2808	52.7344	63.7694	52.7344	63.3432	52.7344	63.8732	52.7344	63.462	52.7344	64.0245	52.7344	63.638	52.7344	64.2243	52.7344	63.8654	52.7344	64.4646	52.7344	64.1326	52.7344	64.7298	52.7344	64.4238	52.7344	64.9996	52.7344	64.7214	52.7344	65.2528	52.7344	65.0075	52.7344	65.4703	52.7344	65.2659	52.7344	65.6367	52.7344	65.4822	52.7344	65.7414	52.7344	65.6449	52.7344	65.7782	52.7344	65.7454
54.1992	64.9352	54.1992	64.881	54.1992	64.9816	54.1992	64.8228	54.1992	65.0199	54.1992	64.7677	54.1992	65.0536	54.1992	64.7251	54.1992	65.0898	54.1992	64.7059	54.1992	65.1383	54.1992	64.721	54.1992	65.2104	54.1992	64.7794	54.1992	65.3161	54.1992	64.8871	54.1992	65.4618	54.1992	65.045	54.1992	65.6475	54.1992	65.2485	54.1992	65.8661	54.1992	65.4882	54.1992	66.1042	54.1992	65.7509	54.1992	66.3444	54.1992	66.0214	54.1992	66.5683	54.1992	66.2836	54.1992	66.7591	54.1992	66.5226	54.1992	66.9032	54.1992	66.7251	54.1992	66.9909	54.1992	66.8801	54.1992	67.0167	54.1992	66.979
55.6641	66.2298	55.6641	66.1787	55.6641	66.2763	55.6641	66.1263	55.6641	66.318	55.6641	66.0783	55.6641	66.3579	55.6641	66.0425	55.6641	66.4019	55.6641	66.028	55.6641	66.4579	55.6641	66.0438	55.6641	66.5348	55.6641	66.0976	55.6641	66.6406	55.6641	66.1943	55.6641	66.7797	55.6641	66.335	55.6641	66.9516	55.6641	66.5164	55.6641	67.1498	55.6641	66.7309	55.6641	67.3628	55.6641	66.9672	55.6641	67.5757	55.6641	67.2123	55.6641	67.7726	55.6641	67.4521	55.6641	67.9387	55.6641	67.6728	55.6641	68.0619	55.6641	67.8622	55.6641	68.1337	55.6641	68.0096	55.6641	68.1491	55.6641	68.107
58.5938	68.4027	58.5938	68.3569	58.5938	68.4479	58.5938	68.3124	58.5938	68.4924	58.5938	68.2733	58.5938	68.5383	58.5938	68.245	58.5938	68.5898	58.5938	68.2338	58.5938	68.6521	58.5938	68.2461	58.5938	68.7309	58.5938	68.2877	58.5938	68.8311	58.5938	68.3624	58.5938	68.9549	58.5938	68.4716	58.5938	69.1009	58.5938	68.6137	58.5938	69.2638	58.5938	68.7839	58.5938	69.4346	58.5938	68.9743	58.5938	69.6019	58.5938	69.1754	58.5938	69.7536	58.5938	69.3758	58.5938	69.8781	58.5938	69.5645	58.5938	69.9661	58.5938	69.7305	58.5938	70.0108	58.5938	69.8645	58.5938	70.0086	58.5938	69.959
60.0586	69.2946	60.0586	69.2495	60.0586	69.3405	60.0586	69.2069	60.0586	69.3873	60.0586	69.1699	60.0586	69.4368	60.0586	69.1433	60.0586	69.4925	60.0586	69.1323	60.0586	69.5586	60.0586	69.1424	60.0586	69.6397	60.0586	69.1786	60.0586	69.7394	60.0586	69.2446	60.0586	69.8588	60.0586	69.3417	60.0586	69.9962	60.0586	69.4691	60.0586	70.1466	60.0586	69.6227	60.0586	70.3016	60.0586	69.7962	60.0586	70.4512	60.0586	69.9812	60.0586	70.5846	60.0586	70.1676	60.0586	70.6917	60.0586	70.3451	60.0586	70.7641	60.0586	70.5038	60.0586	70.796	60.0586	70.6345	60.0586	70.7846	60.0586	70.7299
62.9883	70.9562	62.9883	70.9062	62.9883	71.0095	62.9883	70.861	62.9883	71.0662	62.9883	70.8227	62.9883	71.1273	62.9883	70.7948	62.9883	71.1949	62.9883	70.7811	62.9883	71.2714	62.9883	70.7858	62.9883	71.3591	62.9883	70.8128	62.9883	71.4594	62.9883	70.8649	62.9883	71.5719	62.9883	70.9436	62.9883	71.6944	62.9883	71.0487	62.9883	71.8221	62.9883	71.1776	62.9883	71.9483	62.9883	71.3257	62.9883	72.0651	62.9883	71.4864	62.9883	72.1642	62.9883	71.6519	62.9883	72.2379	62.9883	71.8134	62.9883	72.2802	62.9883	71.9621	62.9883	72.287	62.9883	72.0899	62.9883	72.2566	62.9883	72.1898
64.4531	71.7556	64.4531	71.7033	64.4531	71.812	64.4531	71.6563	64.4531	71.8725	64.4531	71.6166	64.4531	71.9376	64.4531	71.5872	64.4531	72.0088	64.4531	71.5714	64.4531	72.0876	64.4531	71.5726	64.4531	72.1757	64.4531	71.5945	64.4531	72.2735	64.4531	71.6394	64.4531	72.3804	64.4531	71.709	64.4531	72.4938	64.4531	71.8031	64.4531	72.6093	64.4531	71.9198	64.4531	72.721	64.4531	72.0552	64.4531	72.8218	64.4531	72.2036	64.4531	72.9047	64.4531	72.358	64.4531	72.9632	64.4531	72.5106	64.4531	72.992	64.4531	72.6532	64.4531	72.9879	64.4531	72.7781	64.4531	72.9497	64.4531	72.8787
67.3828	72.9844	67.3828	72.9295	67.3828	73.0442	67.3828	72.8805	67.3828	73.1084	67.3828	72.8389	67.3828	73.1774	67.3828	72.8071	67.3828	73.2515	67.3828	72.7875	67.3828	73.3315	67.3828	72.7829	67.3828	73.4176	67.3828	72.796	67.3828	73.5094	67.3828	72.829	67.3828	73.6057	67.3828	72.8833	67.3828	73.7037	67.3828	72.9593	67.3828	73.7997	67.3828	73.0557	67.3828	73.8886	67.3828	73.1699	67.3828	73.965	67.3828	73.2976	67.3828	74.0232	67.3828	73.4333	67.3828	74.0585	67.3828	73.5703	67.3828	74.067	67.3828	73.7017	67.3828	74.0468	67.3828	73.8207	67.3828	73.9975	67.3828	73.921
