"SPL Vertical"																																																																							
"On-Axis"		"10°"		"-10°"		"20°"		"-20°"		"30°"		"-30°"		"40°"		"-40°"		"50°"		"-50°"		"60°"		"-60°"		"70°"		"-70°"		"80°"		"-80°"		"90°"		"-90°"		"100°"		"-100°"		"110°"		"-110°"		"120°"		"-120°"		"130°"		"-130°"		"140°"		"-140°"		"150°"		"-150°"		"160°"		"-160°"		"170°"		"-170°"		"180°"	
"Frequency [Hz]"	"Sound Pessure Level [dB]  / [2.83V 1m] "	"Frequency [Hz]"	"Sound Pessure Level [dB]  / [2.83V 1m] "	"Frequency [Hz]"	"Sound Pessure Level [dB]  / [2.83V 1m] "	"Frequency [Hz]"	"Sound Pessure Level [dB]  / [2.83V 1m] "	"Frequency [Hz]"	"Sound Pessure Level [dB]  / [2.83V 1m] "	"Frequency [Hz]"	"Sound Pessure Level [dB]  / [2.83V 1m] "	"Frequency [Hz]"	"Sound Pessure Level [dB]  / [2.83V 1m] "	"Frequency [Hz]"	"Sound Pessure Level [dB]  / [2.83V 1m] "	"Frequency [Hz]"	"Sound Pessure Level [dB]  / [2.83V 1m] "	"Frequency [Hz]"	"Sound Pessure Level [dB]  / [2.83V 1m] "	"Frequency [Hz]"	"Sound Pessure Level [dB]  / [2.83V 1m] "	"Frequency [Hz]"	"Sound Pessure Level [dB]  / [2.83V 1m] "	"Frequency [Hz]"	"Sound Pessure Level [dB]  / [2.83V 1m] "	"Frequency [Hz]"	"Sound Pessure Level [dB]  / [2.83V 1m] "	"Frequency [Hz]"	"Sound Pessure Level [dB]  / [2.83V 1m] "	"Frequency [Hz]"	"Sound Pessure Level [dB]  / [2.83V 1m] "	"Frequency [Hz]"	"Sound Pessure Level [dB]  / [2.83V 1m] "	"Frequency [Hz]"	"Sound Pessure Level [dB]  / [2.83V 1m] "	"Frequency [Hz]"	"Sound Pessure Level [dB]  / [2.83V 1m] "	"Frequency [Hz]"	"Sound Pessure Level [dB]  / [2.83V 1m] "	"Frequency [Hz]"	"Sound Pessure Level [dB]  / [2.83V 1m] "	"Frequency [Hz]"	"Sound Pessure Level [dB]  / [2.83V 1m] "	"Frequency [Hz]"	"Sound Pessure Level [dB]  / [2.83V 1m] "	"Frequency [Hz]"	"Sound Pessure Level [dB]  / [2.83V 1m] "	"Frequency [Hz]"	"Sound Pessure Level [dB]  / [2.83V 1m] "	"Frequency [Hz]"	"Sound Pessure Level [dB]  / [2.83V 1m] "	"Frequency [Hz]"	"Sound Pessure Level [dB]  / [2.83V 1m] "	"Frequency [Hz]"	"Sound Pessure Level [dB]  / [2.83V 1m] "	"Frequency [Hz]"	"Sound Pessure Level [dB]  / [2.83V 1m] "	"Frequency [Hz]"	"Sound Pessure Level [dB]  / [2.83V 1m] "	"Frequency [Hz]"	"Sound Pessure Level [dB]  / [2.83V 1m] "	"Frequency [Hz]"	"Sound Pessure Level [dB]  / [2.83V 1m] "	"Frequency [Hz]"	"Sound Pessure Level [dB]  / [2.83V 1m] "	"Frequency [Hz]"	"Sound Pessure Level [dB]  / [2.83V 1m] "	"Frequency [Hz]"	"Sound Pessure Level [dB]  / [2.83V 1m] "	"Frequency [Hz]"	"Sound Pessure Level [dB]  / [2.83V 1m] "
20.5078	47.6075	20.5078	47.2911	20.5078	48.1217	20.5078	47.2467	20.5078	48.7732	20.5078	47.5302	20.5078	49.5238	20.5078	48.1418	20.5078	50.3517	20.5078	49.0179	20.5078	51.2409	20.5078	50.0622	20.5078	52.1733	20.5078	51.1822	20.5078	53.1254	20.5078	52.3083	20.5078	54.0704	20.5078	53.3946	20.5078	54.9804	20.5078	54.4126	20.5078	55.8303	20.5078	55.3448	20.5078	56.5994	20.5078	56.1804	20.5078	57.2716	20.5078	56.9121	20.5078	57.836	20.5078	57.5349	20.5078	58.2852	20.5078	58.045	20.5078	58.6149	20.5078	58.4395	20.5078	58.8231	20.5078	58.7161	20.5078	58.909	20.5078	58.8731
21.9727	52.7675	21.9727	52.9402	21.9727	52.6414	21.9727	53.2071	21.9727	52.523	21.9727	53.6088	21.9727	52.3955	21.9727	54.164	21.9727	52.2765	21.9727	54.8626	21.9727	52.2297	21.9727	55.671	21.9727	52.3651	21.9727	56.545	21.9727	52.8025	21.9727	57.441	21.9727	53.5964	21.9727	58.3226	21.9727	54.6867	21.9727	59.161	21.9727	55.9371	21.9727	59.9344	21.9727	57.2109	21.9727	60.6254	21.9727	58.4111	21.9727	61.2193	21.9727	59.481	21.9727	61.7034	21.9727	60.3921	21.9727	62.0658	21.9727	61.1321	21.9727	62.2955	21.9727	61.6977	21.9727	62.3824	21.9727	62.091	21.9727	62.317
23.4375	53.366	23.4375	53.3703	23.4375	53.3466	23.4375	53.4691	23.4375	53.2272	23.4375	53.7744	23.4375	52.952	23.4375	54.3568	23.4375	52.5008	23.4375	55.2087	23.4375	51.9188	23.4375	56.2549	23.4375	51.391	23.4375	57.3974	23.4375	51.3141	23.4375	58.5522	23.4375	52.0937	23.4375	59.6613	23.4375	53.6607	23.4375	60.6882	23.4375	55.5588	23.4375	61.6105	23.4375	57.423	23.4375	62.4134	23.4375	59.0922	23.4375	63.0859	23.4375	60.518	23.4375	63.6186	23.4375	61.6966	23.4375	64.0024	23.4375	62.6377	23.4375	64.2281	23.4375	63.3546	23.4375	64.2864	23.4375	63.8604	23.4375	64.1673
25.6348	59.906	25.6348	59.8445	25.6348	59.9766	25.6348	59.8576	25.6348	60.0068	25.6348	60.0145	25.6348	59.9663	25.6348	60.3676	25.6348	59.8477	25.6348	60.9307	25.6348	59.6739	25.6348	61.6736	25.6348	59.5114	25.6348	62.5375	25.6348	59.4803	25.6348	63.4574	25.6348	59.7316	25.6348	64.3776	25.6348	60.3652	25.6348	65.2557	25.6348	61.3488	25.6348	66.0617	25.6348	62.5381	25.6348	66.7736	25.6348	63.7728	25.6348	67.3748	25.6348	64.9364	25.6348	67.8514	25.6348	65.9624	25.6348	68.1917	25.6348	66.8185	25.6348	68.3844	25.6348	67.4919	25.6348	68.4194	25.6348	67.9804	25.6348	68.2875
27.0996	63.5854	27.0996	63.6324	27.0996	63.563	27.0996	63.7456	27.0996	63.5316	27.0996	63.966	27.0996	63.4717	27.0996	64.3229	27.0996	63.383	27.0996	64.8241	27.0996	63.2906	27.0996	65.4534	27.0996	63.2514	27.0996	66.1767	27.0996	63.3525	27.0996	66.9521	27.0996	63.6862	27.0996	67.7393	27.0996	64.3015	27.0996	68.5034	27.0996	65.1667	27.0996	69.2161	27.0996	66.1854	27.0996	69.8545	27.0996	67.246	27.0996	70.4002	27.0996	68.2586	27.0996	70.8375	27.0996	69.164	27.0996	71.1527	27.0996	69.9282	27.0996	71.3337	27.0996	70.5343	27.0996	71.3702	27.0996	70.976	27.0996	71.2533
29.2969	68.6537	29.2969	68.6179	29.2969	68.7017	29.2969	68.6247	29.2969	68.7381	29.2969	68.7078	29.2969	68.7494	29.2969	68.8966	29.2969	68.7339	29.2969	69.2088	29.2969	68.705	29.2969	69.6445	29.2969	68.694	29.2969	70.1864	29.2969	68.7501	29.2969	70.804	29.2969	68.9322	29.2969	71.4615	29.2969	69.2885	29.2969	72.1235	29.2969	69.8321	29.2969	72.7583	29.2969	70.5294	29.2969	73.3392	29.2969	71.3138	29.2969	73.844	29.2969	72.1112	29.2969	74.2539	29.2969	72.8585	29.2969	74.5535	29.2969	73.5108	29.2969	74.7299	29.2969	74.0396	29.2969	74.7725	29.2969	74.4294	29.2969	74.6738
31.4941	72.7581	31.4941	72.7747	31.4941	72.7655	31.4941	72.8371	31.4941	72.7799	31.4941	72.9678	31.4941	72.7918	31.4941	73.1854	31.4941	72.8014	31.4941	73.5002	31.4941	72.8211	31.4941	73.9105	31.4941	72.8757	31.4941	74.4033	31.4941	73.0014	31.4941	74.9562	31.4941	73.2373	31.4941	75.5424	31.4941	73.6119	31.4941	76.1337	31.4941	74.1284	31.4941	76.7037	31.4941	74.7597	31.4941	77.2286	31.4941	75.4563	31.4941	77.6875	31.4941	76.1616	31.4941	78.0624	31.4941	76.8249	31.4941	78.3379	31.4941	77.4073	31.4941	78.5013	31.4941	77.8823	31.4941	78.5424	31.4941	78.2338	31.4941	78.4544
33.6914	76.6382	33.6914	76.6358	33.6914	76.6641	33.6914	76.6741	33.6914	76.7002	33.6914	76.7714	33.6914	76.739	33.6914	76.9435	33.6914	76.7804	33.6914	77.1999	33.6914	76.833	33.6914	77.5418	33.6914	76.9146	33.6914	77.9605	33.6914	77.0503	33.6914	78.439	33.6914	77.2676	33.6914	78.9552	33.6914	77.5877	33.6914	79.4842	33.6914	78.0156	33.6914	80.0016	33.6914	78.5355	33.6914	80.4842	33.6914	79.1133	33.6914	80.9113	33.6914	79.706	33.6914	81.2647	33.6914	80.2709	33.6914	81.5289	33.6914	80.7722	33.6914	81.6912	33.6914	81.1835	33.6914	81.7418	33.6914	81.4875	33.6914	81.6746
35.8887	80.3477	35.8887	80.3534	35.8887	80.3679	35.8887	80.3976	35.8887	80.4042	35.8887	80.4931	35.8887	80.4512	35.8887	80.6513	35.8887	80.5086	35.8887	80.879	35.8887	80.5826	35.8887	81.1771	35.8887	80.6857	35.8887	81.5395	35.8887	80.8352	35.8887	81.954	35.8887	81.0497	35.8887	82.4034	35.8887	81.3431	35.8887	82.8677	35.8887	81.7189	35.8887	83.326	35.8887	82.1658	35.8887	83.7578	35.8887	82.6592	35.8887	84.1437	35.8887	83.166	35.8887	84.4664	35.8887	83.6516	35.8887	84.7107	35.8887	84.085	35.8887	84.8642	35.8887	84.4419	35.8887	84.9175	35.8887	84.7052	35.8887	84.865
38.8184	84.4136	38.8184	84.4152	38.8184	84.4377	38.8184	84.4519	38.8184	84.4802	38.8184	84.5332	38.8184	84.5367	38.8184	84.6676	38.8184	84.6067	38.8184	84.8603	38.8184	84.6938	38.8184	85.1126	38.8184	84.8064	38.8184	85.4205	38.8184	84.9559	38.8184	85.7748	38.8184	85.1546	38.8184	86.1625	38.8184	85.4123	38.8184	86.5671	38.8184	85.7316	38.8184	86.9706	38.8184	86.1055	38.8184	87.3548	38.8184	86.5168	38.8184	87.7016	38.8184	86.9408	38.8184	87.9947	38.8184	87.3499	38.8184	88.2193	38.8184	87.7175	38.8184	88.3636	38.8184	88.0217	38.8184	88.4188	38.8184	88.2458	38.8184	88.3797
41.0156	87.4657	41.0156	87.4886	41.0156	87.4691	41.0156	87.5436	41.0156	87.4941	41.0156	87.6366	41.0156	87.5383	41.0156	87.7728	41.0156	87.6017	41.0156	87.9552	41.0156	87.6877	41.0156	88.1843	41.0156	87.8023	41.0156	88.4568	41.0156	87.9535	41.0156	88.7662	41.0156	88.1496	41.0156	89.1026	41.0156	88.3962	41.0156	89.4533	41.0156	88.6934	41.0156	89.804	41.0156	89.0341	41.0156	90.1394	41.0156	89.4033	41.0156	90.444	41.0156	89.7806	41.0156	90.7029	41.0156	90.143	41.0156	90.9028	41.0156	90.4679	41.0156	91.0324	41.0156	90.7363	41.0156	91.0834	41.0156	90.9336	41.0156	91.0507
43.9453	90.5532	43.9453	90.5519	43.9453	90.5764	43.9453	90.577	43.9453	90.6181	43.9453	90.6335	43.9453	90.6759	43.9453	90.7256	43.9453	90.7498	43.9453	90.8567	43.9453	90.8413	43.9453	91.0282	43.9453	90.9541	43.9453	91.2388	43.9453	91.093	43.9453	91.4846	43.9453	91.2632	43.9453	91.7586	43.9453	91.468	43.9453	92.0512	43.9453	91.7078	43.9453	92.3505	43.9453	91.9779	43.9453	92.643	43.9453	92.2679	43.9453	92.9147	43.9453	92.5632	43.9453	93.1517	43.9453	92.8461	43.9453	93.3412	43.9453	93.0987	43.9453	93.4723	43.9453	93.3047	43.9453	93.5367	43.9453	93.4513	43.9453	93.5299
47.6074	93.4616	47.6074	93.4583	47.6074	93.4863	47.6074	93.4796	47.6074	93.5302	47.6074	93.5284	47.6074	93.5915	47.6074	93.6075	47.6074	93.6697	47.6074	93.7191	47.6074	93.7654	47.6074	93.8638	47.6074	93.8802	47.6074	94.0409	47.6074	94.0163	47.6074	94.2474	47.6074	94.1762	47.6074	94.4782	47.6074	94.3611	47.6074	94.7261	47.6074	94.57	47.6074	94.9817	47.6074	94.799	47.6074	95.234	47.6074	95.0403	47.6074	95.4713	47.6074	95.2827	47.6074	95.6813	47.6074	95.5127	47.6074	95.8526	47.6074	95.7161	47.6074	95.9753	47.6074	95.8797	47.6074	96.0418	47.6074	95.9927	47.6074	96.0479
50.5371	95.4434	50.5371	95.4372	50.5371	95.4702	50.5371	95.4537	50.5371	95.5159	50.5371	95.495	50.5371	95.5793	50.5371	95.5627	50.5371	95.6595	50.5371	95.6583	50.5371	95.7565	50.5371	95.7822	50.5371	95.8707	50.5371	95.9337	50.5371	96.0028	50.5371	96.1107	50.5371	96.1535	50.5371	96.3092	50.5371	96.3228	50.5371	96.5237	50.5371	96.509	50.5371	96.7466	50.5371	96.7084	50.5371	96.9688	50.5371	96.9146	50.5371	97.1802	50.5371	97.1186	50.5371	97.37	50.5371	97.3097	50.5371	97.528	50.5371	97.4762	50.5371	97.6451	50.5371	97.6075	50.5371	97.714	50.5371	97.6943	50.5371	97.7308
54.1992	97.4858	54.1992	97.4759	54.1992	97.5152	54.1992	97.4866	54.1992	97.563	54.1992	97.5191	54.1992	97.6281	54.1992	97.5742	54.1992	97.7095	54.1992	97.6523	54.1992	97.8064	54.1992	97.7537	54.1992	97.9181	54.1992	97.8775	54.1992	98.0437	54.1992	98.0223	54.1992	98.1824	54.1992	98.1852	54.1992	98.333	54.1992	98.3622	54.1992	98.493	54.1992	98.5478	54.1992	98.6592	54.1992	98.7349	54.1992	98.8263	54.1992	98.9155	54.1992	98.9877	54.1992	99.0807	54.1992	99.1354	54.1992	99.2217	54.1992	99.2608	54.1992	99.3307	54.1992	99.3558	54.1992	99.4011	54.1992	99.4134	54.1992	99.4291
58.5938	99.2926	58.5938	99.278	58.5938	99.3253	58.5938	99.2818	58.5938	99.3754	58.5938	99.3044	58.5938	99.4419	58.5938	99.3458	58.5938	99.5237	58.5938	99.4059	58.5938	99.6192	58.5938	99.4843	58.5938	99.7268	58.5938	99.5805	58.5938	99.8446	58.5938	99.6934	58.5938	99.9705	58.5938	99.8213	58.5938	100.102	58.5938	99.9615	58.5938	100.237	58.5938	100.11	58.5938	100.371	58.5938	100.263	58.5938	100.501	58.5938	100.413	58.5938	100.622	58.5938	100.555	58.5938	100.728	58.5938	100.68	58.5938	100.813	58.5938	100.782	58.5938	100.872	58.5938	100.854	58.5938	100.9	58.5938	100.895
62.2559	100.449	62.2559	100.431	62.2559	100.484	62.2559	100.431	62.2559	100.535	62.2559	100.447	62.2559	100.603	62.2559	100.479	62.2559	100.685	62.2559	100.528	62.2559	100.78	62.2559	100.592	62.2559	100.886	62.2559	100.67	62.2559	100.999	62.2559	100.763	62.2559	101.118	62.2559	100.868	62.2559	101.239	62.2559	100.984	62.2559	101.359	62.2559	101.108	62.2559	101.474	62.2559	101.238	62.2559	101.581	62.2559	101.369	62.2559	101.676	62.2559	101.494	62.2559	101.755	62.2559	101.609	62.2559	101.814	62.2559	101.707	62.2559	101.848	62.2559	101.783	62.2559	101.855	62.2559	101.833
66.6504	101.236	66.6504	101.215	66.6504	101.272	66.6504	101.209	66.6504	101.325	66.6504	101.218	66.6504	101.393	66.6504	101.241	66.6504	101.474	66.6504	101.277	66.6504	101.567	66.6504	101.324	66.6504	101.669	66.6504	101.383	66.6504	101.776	66.6504	101.452	66.6504	101.886	66.6504	101.531	66.6504	101.993	66.6504	101.62	66.6504	102.095	66.6504	101.716	66.6504	102.188	66.6504	101.819	66.6504	102.269	66.6504	101.925	66.6504	102.334	66.6504	102.03	66.6504	102.382	66.6504	102.131	66.6504	102.41	66.6504	102.223	66.6504	102.416	66.6504	102.301	66.6504	102.4	66.6504	102.361
71.7773	101.436	71.7773	101.413	71.7773	101.475	71.7773	101.403	71.7773	101.528	71.7773	101.407	71.7773	101.596	71.7773	101.422	71.7773	101.676	71.7773	101.448	71.7773	101.767	71.7773	101.482	71.7773	101.864	71.7773	101.524	71.7773	101.965	71.7773	101.573	71.7773	102.064	71.7773	101.63	71.7773	102.159	71.7773	101.693	71.7773	102.243	71.7773	101.764	71.7773	102.315	71.7773	101.84	71.7773	102.371	71.7773	101.922	71.7773	102.41	71.7773	102.008	71.7773	102.429	71.7773	102.094	71.7773	102.43	71.7773	102.177	71.7773	102.411	71.7773	102.254	71.7773	102.374	71.7773	102.321
76.9043	101.347	76.9043	101.319	76.9043	101.389	76.9043	101.303	76.9043	101.444	76.9043	101.298	76.9043	101.513	76.9043	101.304	76.9043	101.592	76.9043	101.317	76.9043	101.679	76.9043	101.337	76.9043	101.772	76.9043	101.363	76.9043	101.864	76.9043	101.394	76.9043	101.953	76.9043	101.43	76.9043	102.034	76.9043	101.471	76.9043	102.102	76.9043	101.518	76.9043	102.154	76.9043	101.573	76.9043	102.188	76.9043	101.635	76.9043	102.202	76.9043	101.704	76.9043	102.197	76.9043	101.779	76.9043	102.173	76.9043	101.857	76.9043	102.132	76.9043	101.935	76.9043	102.076	76.9043	102.009
82.7637	101.632	82.7637	101.597	82.7637	101.679	82.7637	101.572	82.7637	101.737	82.7637	101.556	82.7637	101.805	82.7637	101.548	82.7637	101.883	82.7637	101.544	82.7637	101.966	82.7637	101.545	82.7637	102.052	82.7637	101.549	82.7637	102.136	82.7637	101.555	82.7637	102.213	82.7637	101.566	82.7637	102.279	82.7637	101.581	82.7637	102.329	82.7637	101.603	82.7637	102.361	82.7637	101.633	82.7637	102.371	82.7637	101.675	82.7637	102.359	82.7637	101.729	82.7637	102.326	82.7637	101.794	82.7637	102.274	82.7637	101.87	82.7637	102.206	82.7637	101.954	82.7637	102.127	82.7637	102.041
88.623	101.616	88.623	101.579	88.623	101.665	88.623	101.554	88.623	101.726	88.623	101.537	88.623	101.799	88.623	101.529	88.623	101.881	88.623	101.526	88.623	101.97	88.623	101.527	88.623	102.061	88.623	101.532	88.623	102.15	88.623	101.538	88.623	102.233	88.623	101.549	88.623	102.303	88.623	101.563	88.623	102.357	88.623	101.585	88.623	102.391	88.623	101.616	88.623	102.403	88.623	101.658	88.623	102.39	88.623	101.714	88.623	102.355	88.623	101.782	88.623	102.298	88.623	101.863	88.623	102.225	88.623	101.952	88.623	102.139	88.623	102.046
94.4824	101.806	94.4824	101.77	94.4824	101.852	94.4824	101.744	94.4824	101.909	94.4824	101.725	94.4824	101.977	94.4824	101.712	94.4824	102.053	94.4824	101.703	94.4824	102.134	94.4824	101.696	94.4824	102.218	94.4824	101.69	94.4824	102.299	94.4824	101.685	94.4824	102.373	94.4824	101.681	94.4824	102.435	94.4824	101.681	94.4824	102.479	94.4824	101.688	94.4824	102.504	94.4824	101.704	94.4824	102.505	94.4824	101.733	94.4824	102.482	94.4824	101.776	94.4824	102.436	94.4824	101.836	94.4824	102.369	94.4824	101.911	94.4824	102.286	94.4824	101.998	94.4824	102.192	94.4824	102.094
101.807	101.919	101.807	101.892	101.807	101.956	101.807	101.874	101.807	102.005	101.807	101.864	101.807	102.064	101.807	101.858	101.807	102.133	101.807	101.853	101.807	102.207	101.807	101.848	101.807	102.284	101.807	101.842	101.807	102.359	101.807	101.832	101.807	102.427	101.807	101.822	101.807	102.482	101.807	101.812	101.807	102.521	101.807	101.806	101.807	102.539	101.807	101.808	101.807	102.535	101.807	101.82	101.807	102.507	101.807	101.848	101.807	102.456	101.807	101.892	101.807	102.387	101.807	101.953	101.807	102.303	101.807	102.03	101.807	102.211	101.807	102.118
109.131	101.801	109.131	101.776	109.131	101.839	109.131	101.762	109.131	101.89	109.131	101.757	109.131	101.952	109.131	101.758	109.131	102.024	109.131	101.761	109.131	102.103	109.131	101.765	109.131	102.183	109.131	101.765	109.131	102.26	109.131	101.762	109.131	102.33	109.131	101.756	109.131	102.386	109.131	101.748	109.131	102.424	109.131	101.741	109.131	102.442	109.131	101.739	109.131	102.436	109.131	101.746	109.131	102.406	109.131	101.767	109.131	102.354	109.131	101.805	109.131	102.282	109.131	101.86	109.131	102.198	109.131	101.931	109.131	102.106	109.131	102.015
116.455	101.825	116.455	101.789	116.455	101.87	116.455	101.764	116.455	101.926	116.455	101.746	116.455	101.99	116.455	101.735	116.455	102.059	116.455	101.725	116.455	102.13	116.455	101.716	116.455	102.2	116.455	101.703	116.455	102.263	116.455	101.687	116.455	102.316	116.455	101.668	116.455	102.353	116.455	101.646	116.455	102.372	116.455	101.626	116.455	102.37	116.455	101.611	116.455	102.344	116.455	101.606	116.455	102.295	116.455	101.616	116.455	102.226	116.455	101.645	116.455	102.14	116.455	101.693	116.455	102.043	116.455	101.762	116.455	101.943	116.455	101.847
125.244	102.002	125.244	101.954	125.244	102.058	125.244	101.913	125.244	102.12	125.244	101.879	125.244	102.187	125.244	101.85	125.244	102.255	125.244	101.823	125.244	102.321	125.244	101.795	125.244	102.38	125.244	101.766	125.244	102.43	125.244	101.733	125.244	102.467	125.244	101.698	125.244	102.486	125.244	101.661	125.244	102.485	125.244	101.627	125.244	102.461	125.244	101.6	125.244	102.414	125.244	101.584	125.244	102.345	125.244	101.586	125.244	102.255	125.244	101.609	125.244	102.151	125.244	101.656	125.244	102.037	125.244	101.727	125.244	101.924	125.244	101.818
134.033	102.159	134.033	102.102	134.033	102.222	134.033	102.05	134.033	102.289	134.033	102.004	134.033	102.357	134.033	101.963	134.033	102.423	134.033	101.923	134.033	102.485	134.033	101.882	134.033	102.538	134.033	101.84	134.033	102.58	134.033	101.796	134.033	102.607	134.033	101.75	134.033	102.617	134.033	101.705	134.033	102.607	134.033	101.665	134.033	102.576	134.033	101.634	134.033	102.521	134.033	101.617	134.033	102.445	134.033	101.621	134.033	102.349	134.033	101.649	134.033	102.237	134.033	101.702	134.033	102.117	134.033	101.78	134.033	101.995	134.033	101.88
143.555	102.392	143.555	102.324	143.555	102.462	143.555	102.26	143.555	102.531	143.555	102.198	143.555	102.598	143.555	102.139	143.555	102.659	143.555	102.08	143.555	102.712	143.555	102.021	143.555	102.752	143.555	101.96	143.555	102.779	143.555	101.897	143.555	102.79	143.555	101.834	143.555	102.782	143.555	101.773	143.555	102.755	143.555	101.721	143.555	102.707	143.555	101.681	143.555	102.638	143.555	101.66	143.555	102.549	143.555	101.662	143.555	102.441	143.555	101.691	143.555	102.319	143.555	101.748	143.555	102.19	143.555	101.832	143.555	102.06	143.555	101.938
153.809	102.461	153.809	102.393	153.809	102.531	153.809	102.33	153.809	102.601	153.809	102.271	153.809	102.668	153.809	102.216	153.809	102.728	153.809	102.161	153.809	102.778	153.809	102.107	153.809	102.816	153.809	102.05	153.809	102.839	153.809	101.991	153.809	102.844	153.809	101.932	153.809	102.833	153.809	101.877	153.809	102.803	153.809	101.829	153.809	102.754	153.809	101.794	153.809	102.687	153.809	101.778	153.809	102.604	153.809	101.784	153.809	102.505	153.809	101.815	153.809	102.395	153.809	101.871	153.809	102.278	153.809	101.951	153.809	102.16	153.809	102.049
