"SPL Horizontal"																																																																							
"On-Axis"		"10°"		"-10°"		"20°"		"-20°"		"30°"		"-30°"		"40°"		"-40°"		"50°"		"-50°"		"60°"		"-60°"		"70°"		"-70°"		"80°"		"-80°"		"90°"		"-90°"		"100°"		"-100°"		"110°"		"-110°"		"120°"		"-120°"		"130°"		"-130°"		"140°"		"-140°"		"150°"		"-150°"		"160°"		"-160°"		"170°"		"-170°"		"180°"	
"Frequency [Hz]"	"Sound Pessure Level [dB]  / [2.83V 1m] "	"Frequency [Hz]"	"Sound Pessure Level [dB]  / [2.83V 1m] "	"Frequency [Hz]"	"Sound Pessure Level [dB]  / [2.83V 1m] "	"Frequency [Hz]"	"Sound Pessure Level [dB]  / [2.83V 1m] "	"Frequency [Hz]"	"Sound Pessure Level [dB]  / [2.83V 1m] "	"Frequency [Hz]"	"Sound Pessure Level [dB]  / [2.83V 1m] "	"Frequency [Hz]"	"Sound Pessure Level [dB]  / [2.83V 1m] "	"Frequency [Hz]"	"Sound Pessure Level [dB]  / [2.83V 1m] "	"Frequency [Hz]"	"Sound Pessure Level [dB]  / [2.83V 1m] "	"Frequency [Hz]"	"Sound Pessure Level [dB]  / [2.83V 1m] "	"Frequency [Hz]"	"Sound Pessure Level [dB]  / [2.83V 1m] "	"Frequency [Hz]"	"Sound Pessure Level [dB]  / [2.83V 1m] "	"Frequency [Hz]"	"Sound Pessure Level [dB]  / [2.83V 1m] "	"Frequency [Hz]"	"Sound Pessure Level [dB]  / [2.83V 1m] "	"Frequency [Hz]"	"Sound Pessure Level [dB]  / [2.83V 1m] "	"Frequency [Hz]"	"Sound Pessure Level [dB]  / [2.83V 1m] "	"Frequency [Hz]"	"Sound Pessure Level [dB]  / [2.83V 1m] "	"Frequency [Hz]"	"Sound Pessure Level [dB]  / [2.83V 1m] "	"Frequency [Hz]"	"Sound Pessure Level [dB]  / [2.83V 1m] "	"Frequency [Hz]"	"Sound Pessure Level [dB]  / [2.83V 1m] "	"Frequency [Hz]"	"Sound Pessure Level [dB]  / [2.83V 1m] "	"Frequency [Hz]"	"Sound Pessure Level [dB]  / [2.83V 1m] "	"Frequency [Hz]"	"Sound Pessure Level [dB]  / [2.83V 1m] "	"Frequency [Hz]"	"Sound Pessure Level [dB]  / [2.83V 1m] "	"Frequency [Hz]"	"Sound Pessure Level [dB]  / [2.83V 1m] "	"Frequency [Hz]"	"Sound Pessure Level [dB]  / [2.83V 1m] "	"Frequency [Hz]"	"Sound Pessure Level [dB]  / [2.83V 1m] "	"Frequency [Hz]"	"Sound Pessure Level [dB]  / [2.83V 1m] "	"Frequency [Hz]"	"Sound Pessure Level [dB]  / [2.83V 1m] "	"Frequency [Hz]"	"Sound Pessure Level [dB]  / [2.83V 1m] "	"Frequency [Hz]"	"Sound Pessure Level [dB]  / [2.83V 1m] "	"Frequency [Hz]"	"Sound Pessure Level [dB]  / [2.83V 1m] "	"Frequency [Hz]"	"Sound Pessure Level [dB]  / [2.83V 1m] "	"Frequency [Hz]"	"Sound Pessure Level [dB]  / [2.83V 1m] "	"Frequency [Hz]"	"Sound Pessure Level [dB]  / [2.83V 1m] "	"Frequency [Hz]"	"Sound Pessure Level [dB]  / [2.83V 1m] "
20.5078	47.6075	20.5078	47.4715	20.5078	47.8991	20.5078	47.5413	20.5078	48.3128	20.5078	47.8677	20.5078	48.8323	20.5078	48.4737	20.5078	49.4503	20.5078	49.3334	20.5078	50.1605	20.5078	50.3776	20.5078	50.9513	20.5078	51.5213	20.5078	51.8045	20.5078	52.6885	20.5078	52.697	20.5078	53.8217	20.5078	53.6033	20.5078	54.8817	20.5078	54.4983	20.5078	55.8426	20.5078	55.3581	20.5078	56.6873	20.5078	56.1614	20.5078	57.4043	20.5078	56.8888	20.5078	57.9855	20.5078	57.5232	20.5078	58.4255	20.5078	58.0501	20.5078	58.7206	20.5078	58.457	20.5078	58.8696	20.5078	58.7338	20.5078	58.8731
21.9727	52.7675	21.9727	52.9134	21.9727	52.6314	21.9727	53.0726	21.9727	52.5282	21.9727	53.2714	21.9727	52.5086	21.9727	53.5517	21.9727	52.6434	21.9727	53.9587	21.9727	53.001	21.9727	54.5238	21.9727	53.6132	21.9727	55.2488	21.9727	54.4545	21.9727	56.1035	21.9727	55.4542	21.9727	57.0362	21.9727	56.5273	21.9727	57.99	21.9727	57.5999	21.9727	58.9146	21.9727	58.6181	21.9727	59.7702	21.9727	59.5455	21.9727	60.528	21.9727	60.3585	21.9727	61.1674	21.9727	61.0417	21.9727	61.6741	21.9727	61.5848	21.9727	62.0385	21.9727	61.9809	21.9727	62.254	21.9727	62.2258	21.9727	62.317
23.4375	53.366	23.4375	53.371	23.4375	53.2634	23.4375	53.2977	23.4375	53.0834	23.4375	53.2068	23.4375	52.893	23.4375	53.2055	23.4375	52.8164	23.4375	53.4337	23.4375	53.0194	23.4375	54.0058	23.4375	53.6303	23.4375	54.9347	23.4375	54.6438	23.4375	56.1213	23.4375	55.9244	23.4375	57.4236	23.4375	57.3047	23.4375	58.7221	23.4375	58.6587	23.4375	59.9393	23.4375	59.9116	23.4375	61.031	23.4375	61.0248	23.4375	61.9739	23.4375	61.9792	23.4375	62.7554	23.4375	62.7657	23.4375	63.3688	23.4375	63.3796	23.4375	63.81	23.4375	63.8186	23.4375	64.0766	23.4375	64.0813	23.4375	64.1673
25.6348	59.906	25.6348	59.8894	25.6348	59.8803	25.6348	59.8419	25.6348	59.8231	25.6348	59.7973	25.6348	59.7683	25.6348	59.8122	25.6348	59.7731	25.6348	59.9592	25.6348	59.9118	25.6348	60.3064	25.6348	60.2548	25.6348	60.8862	25.6348	60.836	25.6348	61.6763	25.6348	61.6327	25.6348	62.6098	25.6348	62.5758	25.6348	63.6049	25.6348	63.5809	25.6348	64.5889	25.6348	64.5738	25.6348	65.5077	25.6348	65.4996	25.6348	66.3245	25.6348	66.3215	25.6348	67.0155	25.6348	67.0155	25.6348	67.5654	25.6348	67.5669	25.6348	67.9643	25.6348	67.966	25.6348	68.2061	25.6348	68.2072	25.6348	68.2875
27.0996	63.5854	27.0996	63.5769	27.0996	63.5857	27.0996	63.5691	27.0996	63.5854	27.0996	63.5877	27.0996	63.6087	27.0996	63.6724	27.0996	63.6941	27.0996	63.8705	27.0996	63.8886	27.0996	64.2232	27.0996	64.2339	27.0996	64.7484	27.0996	64.7502	27.0996	65.4312	27.0996	65.4249	27.0996	66.228	27.0996	66.2161	27.0996	67.0816	27.0996	67.0671	27.0996	67.9361	27.0996	67.9216	27.0996	68.7451	27.0996	68.7321	27.0996	69.4734	27.0996	69.4628	27.0996	70.0958	27.0996	70.0879	27.0996	70.595	27.0996	70.5894	27.0996	70.9588	27.0996	70.9554	27.0996	71.1797	27.0996	71.1781	27.0996	71.2533
29.2969	68.6537	29.2969	68.6378	29.2969	68.6581	29.2969	68.6161	29.2969	68.6557	29.2969	68.6055	29.2969	68.6624	29.2969	68.6328	29.2969	68.7037	29.2969	68.7319	29.2969	68.8125	29.2969	68.9375	29.2969	69.0226	29.2969	69.2742	29.2969	69.3586	29.2969	69.7469	29.2969	69.8264	29.2969	70.3368	29.2969	70.4088	29.2969	71.0062	29.2969	71.0697	29.2969	71.7089	29.2969	71.7639	29.2969	72.3997	29.2969	72.4465	29.2969	73.04	29.2969	73.079	29.2969	73.5995	29.2969	73.6309	29.2969	74.0558	29.2969	74.0796	29.2969	74.3932	29.2969	74.4091	29.2969	74.6011	29.2969	74.6092	29.2969	74.6738
31.4941	72.7581	31.4941	72.7647	31.4941	72.7587	31.4941	72.7832	31.4941	72.7702	31.4941	72.8263	31.4941	72.8049	31.4941	72.9132	31.4941	72.8818	31.4941	73.067	31.4941	73.0245	31.4941	73.3093	31.4941	73.2559	31.4941	73.6538	31.4941	73.5913	31.4941	74.1008	31.4941	74.0324	31.4941	74.635	31.4941	74.5651	31.4941	75.2285	31.4941	75.1611	31.4941	75.8467	31.4941	75.7851	31.4941	76.454	31.4941	76.4005	31.4941	77.0184	31.4941	76.9739	31.4941	77.5131	31.4941	77.478	31.4941	77.9171	31.4941	77.8912	31.4941	78.215	31.4941	78.198	31.4941	78.3961	31.4941	78.3877	31.4941	78.4544
33.6914	76.6382	33.6914	76.6367	33.6914	76.6498	33.6914	76.6488	33.6914	76.6748	33.6914	76.6837	33.6914	76.7224	33.6914	76.7565	33.6914	76.8072	33.6914	76.8849	33.6914	76.9466	33.6914	77.0865	33.6914	77.1576	33.6914	77.3737	33.6914	77.452	33.6914	77.7494	33.6914	77.8322	33.6914	78.2044	33.6914	78.2885	33.6914	78.7179	33.6914	78.8003	33.6914	79.2618	33.6914	79.3398	33.6914	79.8051	33.6914	79.8761	33.6914	80.3176	33.6914	80.3797	33.6914	80.7733	33.6914	80.8248	33.6914	81.1507	33.6914	81.1903	33.6914	81.4334	33.6914	81.4604	33.6914	81.6103	33.6914	81.6239	33.6914	81.6746
35.8887	80.3477	35.8887	80.3501	35.8887	80.3613	35.8887	80.3711	35.8887	80.3932	35.8887	80.4177	35.8887	80.45	35.8887	80.5005	35.8887	80.542	35.8887	80.632	35.8887	80.6812	35.8887	80.8244	35.8887	80.8797	35.8887	81.0862	35.8887	81.1456	35.8887	81.419	35.8887	81.4805	35.8887	81.8161	35.8887	81.8776	35.8887	82.262	35.8887	82.3216	35.8887	82.7349	35.8887	82.7909	35.8887	83.2094	35.8887	83.2602	35.8887	83.6598	35.8887	83.7043	35.8887	84.0628	35.8887	84.0997	35.8887	84.3982	35.8887	84.4267	35.8887	84.6505	35.8887	84.6699	35.8887	84.8083	35.8887	84.8181	35.8887	84.865
38.8184	84.4136	38.8184	84.416	38.8184	84.4294	38.8184	84.4388	38.8184	84.465	38.8184	84.487	38.8184	84.5249	38.8184	84.5682	38.8184	84.6161	38.8184	84.6912	38.8184	84.747	38.8184	84.8647	38.8184	84.926	38.8184	85.0946	38.8184	85.1589	38.8184	85.3822	38.8184	85.4473	38.8184	85.7226	38.8184	85.7864	38.8184	86.1046	38.8184	86.1653	38.8184	86.5109	38.8184	86.5672	38.8184	86.9212	38.8184	86.9718	38.8184	87.3137	38.8184	87.3575	38.8184	87.6673	38.8184	87.7036	38.8184	87.9637	38.8184	87.9916	38.8184	88.1879	38.8184	88.2068	38.8184	88.3288	38.8184	88.3384	38.8184	88.3797
41.0156	87.4657	41.0156	87.4766	41.0156	87.4769	41.0156	87.5105	41.0156	87.5111	41.0156	87.5706	41.0156	87.5715	41.0156	87.6619	41.0156	87.6631	41.0156	87.7898	41.0156	87.7916	41.0156	87.9595	41.0156	87.9623	41.0156	88.1744	41.0156	88.1787	41.0156	88.4346	41.0156	88.441	41.0156	88.7361	41.0156	88.745	41.0156	89.0699	41.0156	89.0816	41.0156	89.423	41.0156	89.4371	41.0156	89.7791	41.0156	89.7948	41.0156	90.1202	41.0156	90.1364	41.0156	90.4286	41.0156	90.4438	41.0156	90.6877	41.0156	90.7007	41.0156	90.884	41.0156	90.8935	41.0156	91.0072	41.0156	91.0121	41.0156	91.0507
43.9453	90.5532	43.9453	90.559	43.9453	90.5661	43.9453	90.5843	43.9453	90.5984	43.9453	90.6313	43.9453	90.6525	43.9453	90.7035	43.9453	90.7316	43.9453	90.8049	43.9453	90.8398	43.9453	90.9396	43.9453	90.9811	43.9453	91.1107	43.9453	91.1581	43.9453	91.3189	43.9453	91.3715	43.9453	91.5622	43.9453	91.6187	43.9453	91.8345	43.9453	91.8932	43.9453	92.1261	43.9453	92.185	43.9453	92.4242	43.9453	92.4809	43.9453	92.7135	43.9453	92.7656	43.9453	92.9785	43.9453	93.0235	43.9453	93.204	43.9453	93.2399	43.9453	93.3772	43.9453	93.4021	43.9453	93.488	43.9453	93.5007	43.9453	93.5299
47.6074	93.4616	47.6074	93.4698	47.6074	93.4726	47.6074	93.4977	47.6074	93.5033	47.6074	93.5466	47.6074	93.5552	47.6074	93.6184	47.6074	93.63	47.6074	93.7154	47.6074	93.7303	47.6074	93.8398	47.6074	93.858	47.6074	93.9931	47.6074	94.0148	47.6074	94.1753	47.6074	94.2004	47.6074	94.3846	47.6074	94.4126	47.6074	94.6162	47.6074	94.6465	47.6074	94.8628	47.6074	94.8943	47.6074	95.1142	47.6074	95.1455	47.6074	95.3584	47.6074	95.388	47.6074	95.5823	47.6074	95.6086	47.6074	95.7733	47.6074	95.7946	47.6074	95.92	47.6074	95.935	47.6074	96.0134	47.6074	96.0212	47.6074	96.0479
50.5371	95.4434	50.5371	95.4515	50.5371	95.4544	50.5371	95.4789	50.5371	95.4849	50.5371	95.5264	50.5371	95.5355	50.5371	95.5949	50.5371	95.6074	50.5371	95.6858	50.5371	95.7018	50.5371	95.8001	50.5371	95.8197	50.5371	95.9383	50.5371	95.9616	50.5371	96.1003	50.5371	96.1271	50.5371	96.284	50.5371	96.314	50.5371	96.4857	50.5371	96.5181	50.5371	96.6995	50.5371	96.7331	50.5371	96.917	50.5371	96.9506	50.5371	97.1285	50.5371	97.1603	50.5371	97.323	50.5371	97.3512	50.5371	97.4894	50.5371	97.5123	50.5371	97.6177	50.5371	97.6338	50.5371	97.6999	50.5371	97.7082	50.5371	97.7308
54.1992	97.4858	54.1992	97.494	54.1992	97.4961	54.1992	97.5208	54.1992	97.525	54.1992	97.5662	54.1992	97.5728	54.1992	97.6305	54.1992	97.6396	54.1992	97.7139	54.1992	97.7258	54.1992	97.8163	54.1992	97.8312	54.1992	97.9376	54.1992	97.9556	54.1992	98.0767	54.1992	98.0979	54.1992	98.2321	54.1992	98.2561	54.1992	98.4005	54.1992	98.427	54.1992	98.5776	54.1992	98.6056	54.1992	98.757	54.1992	98.7853	54.1992	98.9311	54.1992	98.9583	54.1992	99.0913	54.1992	99.1157	54.1992	99.2287	54.1992	99.2487	54.1992	99.335	54.1992	99.3492	54.1992	99.4033	54.1992	99.4107	54.1992	99.4291
58.5938	99.2926	58.5938	99.2994	58.5938	99.3034	58.5938	99.3237	58.5938	99.3317	58.5938	99.3651	58.5938	99.3771	58.5938	99.4231	58.5938	99.4393	58.5938	99.4972	58.5938	99.5176	58.5938	99.5864	58.5938	99.611	58.5938	99.6899	58.5938	99.7185	58.5938	99.8063	58.5938	99.8386	58.5938	99.9339	58.5938	99.9693	58.5938	100.07	58.5938	100.108	58.5938	100.212	58.5938	100.251	58.5938	100.355	58.5938	100.393	58.5938	100.494	58.5938	100.53	58.5938	100.621	58.5938	100.653	58.5938	100.731	58.5938	100.757	58.5938	100.817	58.5938	100.835	58.5938	100.872	58.5938	100.882	58.5938	100.895
62.2559	100.449	62.2559	100.455	62.2559	100.46	62.2559	100.477	62.2559	100.488	62.2559	100.516	62.2559	100.532	62.2559	100.571	62.2559	100.592	62.2559	100.64	62.2559	100.665	62.2559	100.721	62.2559	100.751	62.2559	100.815	62.2559	100.849	62.2559	100.918	62.2559	100.955	62.2559	101.029	62.2559	101.068	62.2559	101.145	62.2559	101.187	62.2559	101.265	62.2559	101.307	62.2559	101.385	62.2559	101.425	62.2559	101.5	62.2559	101.537	62.2559	101.606	62.2559	101.638	62.2559	101.697	62.2559	101.723	62.2559	101.768	62.2559	101.786	62.2559	101.814	62.2559	101.823	62.2559	101.833
66.6504	101.236	66.6504	101.24	66.6504	101.247	66.6504	101.26	66.6504	101.274	66.6504	101.295	66.6504	101.316	66.6504	101.345	66.6504	101.372	66.6504	101.406	66.6504	101.439	66.6504	101.477	66.6504	101.516	66.6504	101.557	66.6504	101.6	66.6504	101.644	66.6504	101.691	66.6504	101.735	66.6504	101.784	66.6504	101.829	66.6504	101.879	66.6504	101.923	66.6504	101.973	66.6504	102.016	66.6504	102.064	66.6504	102.104	66.6504	102.148	66.6504	102.185	66.6504	102.223	66.6504	102.254	66.6504	102.284	66.6504	102.308	66.6504	102.329	66.6504	102.345	66.6504	102.356	66.6504	102.361
71.7773	101.436	71.7773	101.441	71.7773	101.446	71.7773	101.461	71.7773	101.471	71.7773	101.494	71.7773	101.51	71.7773	101.539	71.7773	101.56	71.7773	101.595	71.7773	101.62	71.7773	101.658	71.7773	101.688	71.7773	101.727	71.7773	101.76	71.7773	101.799	71.7773	101.835	71.7773	101.872	71.7773	101.91	71.7773	101.945	71.7773	101.984	71.7773	102.016	71.7773	102.054	71.7773	102.083	71.7773	102.12	71.7773	102.146	71.7773	102.179	71.7773	102.201	71.7773	102.23	71.7773	102.248	71.7773	102.271	71.7773	102.285	71.7773	102.301	71.7773	102.31	71.7773	102.318	71.7773	102.321
76.9043	101.347	76.9043	101.358	76.9043	101.349	76.9043	101.383	76.9043	101.365	76.9043	101.419	76.9043	101.393	76.9043	101.466	76.9043	101.432	76.9043	101.52	76.9043	101.479	76.9043	101.579	76.9043	101.532	76.9043	101.641	76.9043	101.588	76.9043	101.701	76.9043	101.646	76.9043	101.76	76.9043	101.702	76.9043	101.814	76.9043	101.756	76.9043	101.863	76.9043	101.806	76.9043	101.905	76.9043	101.852	76.9043	101.941	76.9043	101.893	76.9043	101.97	76.9043	101.929	76.9043	101.991	76.9043	101.959	76.9043	102.005	76.9043	101.983	76.9043	102.011	76.9043	102	76.9043	102.009
82.7637	101.632	82.7637	101.641	82.7637	101.635	82.7637	101.661	82.7637	101.649	82.7637	101.691	82.7637	101.673	82.7637	101.729	82.7637	101.706	82.7637	101.772	82.7637	101.745	82.7637	101.818	82.7637	101.787	82.7637	101.863	82.7637	101.829	82.7637	101.906	82.7637	101.871	82.7637	101.944	82.7637	101.908	82.7637	101.976	82.7637	101.941	82.7637	102.001	82.7637	101.968	82.7637	102.02	82.7637	101.989	82.7637	102.032	82.7637	102.005	82.7637	102.04	82.7637	102.018	82.7637	102.043	82.7637	102.027	82.7637	102.044	82.7637	102.033	82.7637	102.044	82.7637	102.038	82.7637	102.041
88.623	101.616	88.623	101.62	88.623	101.625	88.623	101.636	88.623	101.646	88.623	101.664	88.623	101.678	88.623	101.7	88.623	101.718	88.623	101.744	88.623	101.764	88.623	101.791	88.623	101.814	88.623	101.838	88.623	101.863	88.623	101.883	88.623	101.909	88.623	101.924	88.623	101.95	88.623	101.959	88.623	101.984	88.623	101.986	88.623	102.011	88.623	102.007	88.623	102.03	88.623	102.021	88.623	102.042	88.623	102.031	88.623	102.048	88.623	102.037	88.623	102.05	88.623	102.04	88.623	102.05	88.623	102.043	88.623	102.048	88.623	102.046
94.4824	101.806	94.4824	101.808	94.4824	101.815	94.4824	101.822	94.4824	101.835	94.4824	101.845	94.4824	101.864	94.4824	101.877	94.4824	101.9	94.4824	101.914	94.4824	101.941	94.4824	101.953	94.4824	101.984	94.4824	101.992	94.4824	102.025	94.4824	102.028	94.4824	102.062	94.4824	102.059	94.4824	102.093	94.4824	102.083	94.4824	102.115	94.4824	102.098	94.4824	102.129	94.4824	102.106	94.4824	102.134	94.4824	102.108	94.4824	102.132	94.4824	102.105	94.4824	102.125	94.4824	102.1	94.4824	102.116	94.4824	102.096	94.4824	102.106	94.4824	102.093	94.4824	102.098	94.4824	102.094
101.807	101.919	101.807	101.923	101.807	101.925	101.807	101.938	101.807	101.942	101.807	101.963	101.807	101.969	101.807	101.995	101.807	102.002	101.807	102.032	101.807	102.039	101.807	102.071	101.807	102.077	101.807	102.107	101.807	102.113	101.807	102.14	101.807	102.144	101.807	102.165	101.807	102.168	101.807	102.181	101.807	102.182	101.807	102.188	101.807	102.188	101.807	102.186	101.807	102.184	101.807	102.177	101.807	102.174	101.807	102.162	101.807	102.159	101.807	102.146	101.807	102.144	101.807	102.132	101.807	102.13	101.807	102.122	101.807	102.12	101.807	102.118
109.131	101.801	109.131	101.801	109.131	101.813	109.131	101.812	109.131	101.836	109.131	101.833	109.131	101.868	109.131	101.863	109.131	101.908	109.131	101.899	109.131	101.952	109.131	101.937	109.131	101.997	109.131	101.974	109.131	102.039	109.131	102.007	109.131	102.075	109.131	102.033	109.131	102.102	109.131	102.051	109.131	102.119	109.131	102.06	109.131	102.124	109.131	102.059	109.131	102.119	109.131	102.052	109.131	102.105	109.131	102.041	109.131	102.085	109.131	102.028	109.131	102.062	109.131	102.018	109.131	102.041	109.131	102.013	109.131	102.025	109.131	102.015
116.455	101.825	116.455	101.824	116.455	101.833	116.455	101.833	116.455	101.85	116.455	101.849	116.455	101.874	116.455	101.87	116.455	101.903	116.455	101.895	116.455	101.933	116.455	101.92	116.455	101.964	116.455	101.943	116.455	101.991	116.455	101.961	116.455	102.011	116.455	101.972	116.455	102.022	116.455	101.974	116.455	102.023	116.455	101.967	116.455	102.014	116.455	101.951	116.455	101.994	116.455	101.929	116.455	101.967	116.455	101.904	116.455	101.936	116.455	101.88	116.455	101.904	116.455	101.86	116.455	101.877	116.455	101.848	116.455	101.857	116.455	101.847
125.244	102.002	125.244	101.994	125.244	102.015	125.244	101.991	125.244	102.033	125.244	101.992	125.244	102.055	125.244	101.997	125.244	102.079	125.244	102.003	125.244	102.103	125.244	102.009	125.244	102.123	125.244	102.012	125.244	102.138	125.244	102.009	125.244	102.145	125.244	102.001	125.244	102.141	125.244	101.984	125.244	102.126	125.244	101.961	125.244	102.099	125.244	101.931	125.244	102.061	125.244	101.899	125.244	102.016	125.244	101.866	125.244	101.966	125.244	101.838	125.244	101.917	125.244	101.818	125.244	101.873	125.244	101.811	125.244	101.839	125.244	101.818
134.033	102.159	134.033	102.163	134.033	102.159	134.033	102.17	134.033	102.161	134.033	102.179	134.033	102.165	134.033	102.188	134.033	102.17	134.033	102.197	134.033	102.175	134.033	102.203	134.033	102.177	134.033	102.204	134.033	102.176	134.033	102.199	134.033	102.168	134.033	102.185	134.033	102.152	134.033	102.161	134.033	102.129	134.033	102.129	134.033	102.097	134.033	102.089	134.033	102.058	134.033	102.044	134.033	102.016	134.033	101.997	134.033	101.973	134.033	101.953	134.033	101.934	134.033	101.916	134.033	101.903	134.033	101.891	134.033	101.884	134.033	101.88
143.555	102.392	143.555	102.385	143.555	102.398	143.555	102.379	143.555	102.403	143.555	102.372	143.555	102.407	143.555	102.363	143.555	102.408	143.555	102.353	143.555	102.406	143.555	102.34	143.555	102.398	143.555	102.322	143.555	102.383	143.555	102.299	143.555	102.36	143.555	102.27	143.555	102.328	143.555	102.233	143.555	102.287	143.555	102.19	143.555	102.238	143.555	102.143	143.555	102.182	143.555	102.093	143.555	102.124	143.555	102.044	143.555	102.068	143.555	102	143.555	102.017	143.555	101.965	143.555	101.976	143.555	101.944	143.555	101.949	143.555	101.938
153.809	102.461	153.809	102.453	153.809	102.467	153.809	102.445	153.809	102.472	153.809	102.436	153.809	102.476	153.809	102.425	153.809	102.478	153.809	102.411	153.809	102.477	153.809	102.394	153.809	102.471	153.809	102.373	153.809	102.461	153.809	102.347	153.809	102.443	153.809	102.316	153.809	102.417	153.809	102.28	153.809	102.384	153.809	102.24	153.809	102.342	153.809	102.197	153.809	102.294	153.809	102.153	153.809	102.242	153.809	102.113	153.809	102.189	153.809	102.08	153.809	102.14	153.809	102.057	153.809	102.098	153.809	102.046	153.809	102.067	153.809	102.049
