"SPL Vertical"																																																																							
"On-Axis"		"10°"		"-10°"		"20°"		"-20°"		"30°"		"-30°"		"40°"		"-40°"		"50°"		"-50°"		"60°"		"-60°"		"70°"		"-70°"		"80°"		"-80°"		"90°"		"-90°"		"100°"		"-100°"		"110°"		"-110°"		"120°"		"-120°"		"130°"		"-130°"		"140°"		"-140°"		"150°"		"-150°"		"160°"		"-160°"		"170°"		"-170°"		"180°"	
"Frequency [Hz]"	"Sound Pessure Level [dB]  / [2.83V 1m] "	"Frequency [Hz]"	"Sound Pessure Level [dB]  / [2.83V 1m] "	"Frequency [Hz]"	"Sound Pessure Level [dB]  / [2.83V 1m] "	"Frequency [Hz]"	"Sound Pessure Level [dB]  / [2.83V 1m] "	"Frequency [Hz]"	"Sound Pessure Level [dB]  / [2.83V 1m] "	"Frequency [Hz]"	"Sound Pessure Level [dB]  / [2.83V 1m] "	"Frequency [Hz]"	"Sound Pessure Level [dB]  / [2.83V 1m] "	"Frequency [Hz]"	"Sound Pessure Level [dB]  / [2.83V 1m] "	"Frequency [Hz]"	"Sound Pessure Level [dB]  / [2.83V 1m] "	"Frequency [Hz]"	"Sound Pessure Level [dB]  / [2.83V 1m] "	"Frequency [Hz]"	"Sound Pessure Level [dB]  / [2.83V 1m] "	"Frequency [Hz]"	"Sound Pessure Level [dB]  / [2.83V 1m] "	"Frequency [Hz]"	"Sound Pessure Level [dB]  / [2.83V 1m] "	"Frequency [Hz]"	"Sound Pessure Level [dB]  / [2.83V 1m] "	"Frequency [Hz]"	"Sound Pessure Level [dB]  / [2.83V 1m] "	"Frequency [Hz]"	"Sound Pessure Level [dB]  / [2.83V 1m] "	"Frequency [Hz]"	"Sound Pessure Level [dB]  / [2.83V 1m] "	"Frequency [Hz]"	"Sound Pessure Level [dB]  / [2.83V 1m] "	"Frequency [Hz]"	"Sound Pessure Level [dB]  / [2.83V 1m] "	"Frequency [Hz]"	"Sound Pessure Level [dB]  / [2.83V 1m] "	"Frequency [Hz]"	"Sound Pessure Level [dB]  / [2.83V 1m] "	"Frequency [Hz]"	"Sound Pessure Level [dB]  / [2.83V 1m] "	"Frequency [Hz]"	"Sound Pessure Level [dB]  / [2.83V 1m] "	"Frequency [Hz]"	"Sound Pessure Level [dB]  / [2.83V 1m] "	"Frequency [Hz]"	"Sound Pessure Level [dB]  / [2.83V 1m] "	"Frequency [Hz]"	"Sound Pessure Level [dB]  / [2.83V 1m] "	"Frequency [Hz]"	"Sound Pessure Level [dB]  / [2.83V 1m] "	"Frequency [Hz]"	"Sound Pessure Level [dB]  / [2.83V 1m] "	"Frequency [Hz]"	"Sound Pessure Level [dB]  / [2.83V 1m] "	"Frequency [Hz]"	"Sound Pessure Level [dB]  / [2.83V 1m] "	"Frequency [Hz]"	"Sound Pessure Level [dB]  / [2.83V 1m] "	"Frequency [Hz]"	"Sound Pessure Level [dB]  / [2.83V 1m] "	"Frequency [Hz]"	"Sound Pessure Level [dB]  / [2.83V 1m] "	"Frequency [Hz]"	"Sound Pessure Level [dB]  / [2.83V 1m] "	"Frequency [Hz]"	"Sound Pessure Level [dB]  / [2.83V 1m] "	"Frequency [Hz]"	"Sound Pessure Level [dB]  / [2.83V 1m] "
20.5078	51.1211	20.5078	50.9895	20.5078	51.2949	20.5078	50.8928	20.5078	51.5152	20.5078	50.8231	20.5078	51.7809	20.5078	50.7732	20.5078	52.0841	20.5078	50.7373	20.5078	52.41	20.5078	50.712	20.5078	52.7379	20.5078	50.6957	20.5078	53.0441	20.5078	50.6888	20.5078	53.3049	20.5078	50.6933	20.5078	53.4998	20.5078	50.7127	20.5078	53.6133	20.5078	50.7513	20.5078	53.6364	20.5078	50.8142	20.5078	53.5675	20.5078	50.9067	20.5078	53.4127	20.5078	51.034	20.5078	53.1845	20.5078	51.2005	20.5078	52.9017	20.5078	51.409	20.5078	52.5862	20.5078	51.6593	20.5078	52.261	20.5078	51.9467
21.2402	49.8188	21.2402	49.4468	21.2402	50.2652	21.2402	49.1508	21.2402	50.7752	21.2402	48.9256	21.2402	51.3291	21.2402	48.7619	21.2402	51.9005	21.2402	48.6494	21.2402	52.4592	21.2402	48.5793	21.2402	52.9748	21.2402	48.5455	21.2402	53.4196	21.2402	48.5452	21.2402	53.7696	21.2402	48.5785	21.2402	54.0064	21.2402	48.6484	21.2402	54.1173	21.2402	48.7597	21.2402	54.0961	21.2402	48.9188	21.2402	53.9433	21.2402	49.1326	21.2402	53.6665	21.2402	49.4078	21.2402	53.2807	21.2402	49.7496	21.2402	52.8078	21.2402	50.1595	21.2402	52.2755	21.2402	50.6333	21.2402	51.7154	21.2402	51.1588
21.9727	52.1471	21.9727	51.7998	21.9727	52.5606	21.9727	51.5194	21.9727	53.0317	21.9727	51.3006	21.9727	53.5437	21.9727	51.1346	21.9727	54.0735	21.9727	51.0119	21.9727	54.5937	21.9727	50.9243	21.9727	55.0759	21.9727	50.8659	21.9727	55.4936	21.9727	50.8342	21.9727	55.8231	21.9727	50.8298	21.9727	56.0458	21.9727	50.8564	21.9727	56.1482	21.9727	50.9208	21.9727	56.1228	21.9727	51.0322	21.9727	55.9686	21.9727	51.2014	21.9727	55.6914	21.9727	51.4393	21.9727	55.3043	21.9727	51.7545	21.9727	54.8276	21.9727	52.1502	21.9727	54.2884	21.9727	52.6214	21.9727	53.7187	21.9727	53.1525
22.7051	54.3943	22.7051	53.921	22.7051	54.915	22.7051	53.5049	22.7051	55.4683	22.7051	53.151	22.7051	56.0352	22.7051	52.8602	22.7051	56.5937	22.7051	52.631	22.7051	57.1209	22.7051	52.461	22.7051	57.5941	22.7051	52.3486	22.7051	57.9923	22.7051	52.2934	22.7051	58.2974	22.7051	52.2971	22.7051	58.495	22.7051	52.3633	22.7051	58.575	22.7051	52.4969	22.7051	58.5318	22.7051	52.703	22.7051	58.3653	22.7051	52.9858	22.7051	58.0808	22.7051	53.3474	22.7051	57.6893	22.7051	53.7855	22.7051	57.2075	22.7051	54.2926	22.7051	56.657	22.7051	54.8551	22.7051	56.0631	22.7051	55.4534
23.4375	58.7388	23.4375	58.3807	23.4375	59.1393	23.4375	58.0713	23.4375	59.5721	23.4375	57.8135	23.4375	60.0234	23.4375	57.6075	23.4375	60.4763	23.4375	57.4523	23.4375	60.9118	23.4375	57.3458	23.4375	61.3104	23.4375	57.2864	23.4375	61.6531	23.4375	57.273	23.4375	61.923	23.4375	57.3055	23.4375	62.1061	23.4375	57.3847	23.4375	62.1923	23.4375	57.5121	23.4375	62.1762	23.4375	57.6899	23.4375	62.0573	23.4375	57.92	23.4375	61.8409	23.4375	58.2035	23.4375	61.5372	23.4375	58.5396	23.4375	61.1615	23.4375	58.9249	23.4375	60.7334	23.4375	59.3514	23.4375	60.2744	23.4375	59.8069
24.1699	59.9042	24.1699	59.5523	24.1699	60.2971	24.1699	59.2478	24.1699	60.7209	24.1699	58.9935	24.1699	61.162	24.1699	58.7899	24.1699	61.6036	24.1699	58.6358	24.1699	62.027	24.1699	58.5294	24.1699	62.413	24.1699	58.4687	24.1699	62.743	24.1699	58.4527	24.1699	63.0002	24.1699	58.481	24.1699	63.1713	24.1699	58.5543	24.1699	63.2464	24.1699	58.6738	24.1699	63.2207	24.1699	58.8414	24.1699	63.0944	24.1699	59.059	24.1699	62.8729	24.1699	59.328	24.1699	62.5673	24.1699	59.6481	24.1699	62.1935	24.1699	60.0165	24.1699	61.7709	24.1699	60.4264	24.1699	61.3214	24.1699	60.8666
25.6348	63.9288	25.6348	63.5888	25.6348	64.3031	25.6348	63.2899	25.6348	64.702	25.6348	63.0357	25.6348	65.1128	25.6348	62.8279	25.6348	65.5203	25.6348	62.6665	25.6348	65.9077	25.6348	62.5503	25.6348	66.2576	25.6348	62.4784	25.6348	66.5531	25.6348	62.4498	25.6348	66.7792	25.6348	62.464	25.6348	66.9235	25.6348	62.5215	25.6348	66.9771	25.6348	62.6234	25.6348	66.9358	25.6348	62.7711	25.6348	66.8	25.6348	62.9665	25.6348	66.5756	25.6348	63.2109	25.6348	66.2735	25.6348	63.5046	25.6348	65.9092	25.6348	63.8454	25.6348	65.5019	25.6348	64.2277	25.6348	65.0724	25.6348	64.6415
26.3672	65.5324	26.3672	65.1921	26.3672	65.9037	26.3672	64.8899	26.3672	66.2964	26.3672	64.6302	26.3672	66.6979	26.3672	64.4149	26.3672	67.0933	26.3672	64.2448	26.3672	67.4665	26.3672	64.1194	26.3672	67.8007	26.3672	64.0379	26.3672	68.0797	26.3672	63.9997	26.3672	68.2892	26.3672	64.0046	26.3672	68.4172	26.3672	64.0528	26.3672	68.4558	26.3672	64.1453	26.3672	68.401	26.3672	64.2835	26.3672	68.2539	26.3672	64.469	26.3672	68.0209	26.3672	64.7031	26.3672	67.7133	26.3672	64.986	26.3672	67.3469	26.3672	65.3159	26.3672	66.9408	26.3672	65.6878	26.3672	66.5159	26.3672	66.0923
27.0996	67.5552	27.0996	67.2255	27.0996	67.9126	27.0996	66.9304	27.0996	68.2886	27.0996	66.6744	27.0996	68.6713	27.0996	66.4601	27.0996	69.0469	27.0996	66.2884	27.0996	69.4001	27.0996	66.1596	27.0996	69.7154	27.0996	66.0736	27.0996	69.9773	27.0996	66.0299	27.0996	70.1723	27.0996	66.0287	27.0996	70.2892	27.0996	66.0703	27.0996	70.3201	27.0996	66.1557	27.0996	70.2616	27.0996	66.2859	27.0996	70.1147	27.0996	66.4625	27.0996	69.8858	27.0996	66.6863	27.0996	69.5859	27.0996	66.9574	27.0996	69.2303	27.0996	67.274	27.0996	68.8377	27.0996	67.6311	27.0996	68.4278	27.0996	68.0201
27.832	69.2866	27.832	68.9672	27.832	69.6318	27.832	68.6801	27.832	69.9937	27.832	68.43	27.832	70.361	27.832	68.2195	27.832	70.7205	27.832	68.0498	27.832	71.0575	27.832	67.9215	27.832	71.3572	27.832	67.8344	27.832	71.6048	27.832	67.7886	27.832	71.7872	27.832	67.7839	27.832	71.8938	27.832	67.8208	27.832	71.9173	27.832	67.9	27.832	71.8545	27.832	68.0225	27.832	71.7069	27.832	68.1896	27.832	71.4807	27.832	68.4021	27.832	71.1872	27.832	68.66	27.832	70.8414	27.832	68.9616	27.832	70.4614	27.832	69.3026	27.832	70.0665	27.832	69.6749
29.2969	72.6842	29.2969	72.3837	29.2969	73.0068	29.2969	72.1118	29.2969	73.3431	29.2969	71.8731	29.2969	73.6825	29.2969	71.6704	29.2969	74.0128	29.2969	71.5054	29.2969	74.3207	29.2969	71.3789	29.2969	74.5923	29.2969	71.2912	29.2969	74.8141	29.2969	71.2423	29.2969	74.9741	29.2969	71.2323	29.2969	75.0625	29.2969	71.2614	29.2969	75.0728	29.2969	71.3299	29.2969	75.0025	29.2969	71.4386	29.2969	74.8535	29.2969	71.5883	29.2969	74.6326	29.2969	71.7796	29.2969	74.3508	29.2969	72.0127	29.2969	74.023	29.2969	72.2864	29.2969	73.6665	29.2969	72.597	29.2969	73.2993	29.2969	72.9381
30.0293	74.289	30.0293	73.9983	30.0293	74.5999	30.0293	73.7342	30.0293	74.9228	30.0293	73.5011	30.0293	75.2478	30.0293	73.3021	30.0293	75.5631	30.0293	73.1388	30.0293	75.8559	30.0293	73.0124	30.0293	76.1129	30.0293	72.9232	30.0293	76.3213	30.0293	72.8713	30.0293	76.4695	30.0293	72.857	30.0293	76.5482	30.0293	72.8804	30.0293	76.5515	30.0293	72.942	30.0293	76.4769	30.0293	73.0424	30.0293	76.3268	30.0293	73.1824	30.0293	76.108	30.0293	73.3626	30.0293	75.8316	30.0293	73.5832	30.0293	75.5122	30.0293	73.8432	30.0293	75.1667	30.0293	74.1393	30.0293	74.8125	30.0293	74.4657
31.4941	77.3044	31.4941	77.0281	31.4941	77.5988	31.4941	76.7761	31.4941	77.9034	31.4941	76.5529	31.4941	78.2083	31.4941	76.3618	31.4941	78.5025	31.4941	76.2046	31.4941	78.7738	31.4941	76.0824	31.4941	79.0097	31.4941	75.9956	31.4941	79.1981	31.4941	75.9441	31.4941	79.3283	31.4941	75.9279	31.4941	79.3917	31.4941	75.9468	31.4941	79.383	31.4941	76.0009	31.4941	79.3006	31.4941	76.0903	31.4941	79.1475	31.4941	76.2156	31.4941	78.9308	31.4941	76.3772	31.4941	78.6622	31.4941	76.5756	31.4941	78.3564	31.4941	76.8103	31.4941	78.0297	31.4941	77.0793	31.4941	77.6987	31.4941	77.3781
32.2266	78.7326	32.2266	78.4576	32.2266	79.0241	32.2266	78.2052	32.2266	79.3242	32.2266	77.9803	32.2266	79.6234	32.2266	77.7861	32.2266	79.9108	32.2266	77.6248	32.2266	80.1746	32.2266	77.4977	32.2266	80.4026	32.2266	77.4054	32.2266	80.5831	32.2266	77.3482	32.2266	80.7057	32.2266	77.326	32.2266	80.762	32.2266	77.339	32.2266	80.7471	32.2266	77.3872	32.2266	80.6595	32.2266	77.4709	32.2266	80.5022	32.2266	77.5907	32.2266	80.2826	32.2266	77.7472	32.2266	80.0122	32.2266	77.9407	32.2266	79.7058	32.2266	78.1711	32.2266	79.3796	32.2266	78.4363	32.2266	79.0502	32.2266	78.7319
33.6914	81.2917	33.6914	81.0238	33.6914	81.5736	33.6914	80.776	33.6914	81.8617	33.6914	80.5532	33.6914	82.1471	33.6914	80.3588	33.6914	82.4193	33.6914	80.1954	33.6914	82.6672	33.6914	80.0645	33.6914	82.8793	33.6914	79.9672	33.6914	83.0448	33.6914	79.9041	33.6914	83.1537	33.6914	79.8755	33.6914	83.1986	33.6914	79.8816	33.6914	83.1748	33.6914	79.9226	33.6914	83.0815	33.6914	79.9987	33.6914	82.922	33.6914	80.1105	33.6914	82.7036	33.6914	80.2582	33.6914	82.4379	33.6914	80.4422	33.6914	82.1391	33.6914	80.662	33.6914	81.823	33.6914	80.9157	33.6914	81.5052	33.6914	81.1992
34.4238	82.477	34.4238	82.2141	34.4238	82.7529	34.4238	81.9705	34.4238	83.0342	34.4238	81.7509	34.4238	83.3121	34.4238	81.5591	34.4238	83.5764	34.4238	81.3975	34.4238	83.8163	34.4238	81.2679	34.4238	84.0206	34.4238	81.1714	34.4238	84.1786	34.4238	81.1086	34.4238	84.2811	34.4238	81.0798	34.4238	84.3209	34.4238	81.0852	34.4238	84.2936	34.4238	81.1248	34.4238	84.1988	34.4238	81.1989	34.4238	84.0399	34.4238	81.3075	34.4238	83.8246	34.4238	81.4509	34.4238	83.5641	34.4238	81.6293	34.4238	83.2727	34.4238	81.842	34.4238	82.9654	34.4238	82.0873	34.4238	82.6573	34.4238	82.3613
35.8887	84.655	35.8887	84.3999	35.8887	84.9212	35.8887	84.1621	35.8887	85.1911	35.8887	83.9466	35.8887	85.456	35.8887	83.7572	35.8887	85.7061	35.8887	83.5966	35.8887	85.931	35.8887	83.4667	35.8887	86.1202	35.8887	83.3688	35.8887	86.2636	35.8887	83.3035	35.8887	86.3524	35.8887	83.2712	35.8887	86.3801	35.8887	83.2719	35.8887	86.3432	35.8887	83.3057	35.8887	86.2416	35.8887	83.3724	35.8887	86.0794	35.8887	83.4719	35.8887	85.8645	35.8887	83.6045	35.8887	85.6085	35.8887	83.7701	35.8887	85.3253	35.8887	83.9684	35.8887	85.0298	35.8887	84.198	35.8887	84.7359	35.8887	84.4557
37.3535	86.5132	37.3535	86.2645	37.3535	86.7716	37.3535	86.0317	37.3535	87.0324	37.3535	85.8198	37.3535	87.2869	37.3535	85.6327	37.3535	87.5258	37.3535	85.4733	37.3535	87.7391	37.3535	85.3437	37.3535	87.9165	37.3535	85.2452	37.3535	88.0487	37.3535	85.1786	37.3535	88.1273	37.3535	85.1442	37.3535	88.1464	37.3535	85.1421	37.3535	88.1028	37.3535	85.172	37.3535	87.9971	37.3535	85.2337	37.3535	87.8335	37.3535	85.3271	37.3535	87.6205	37.3535	85.452	37.3535	87.3693	37.3535	85.6085	37.3535	87.0939	37.3535	85.7961	37.3535	86.8085	37.3535	86.0138	37.3535	86.5265	37.3535	86.2589
38.8184	87.996	38.8184	87.7531	38.8184	88.2474	38.8184	87.525	38.8184	88.4999	38.8184	87.3167	38.8184	88.7453	38.8184	87.1324	38.8184	88.9743	38.8184	86.9751	38.8184	89.1773	38.8184	86.847	38.8184	89.3446	38.8184	86.7495	38.8184	89.4671	38.8184	86.6835	38.8184	89.5372	38.8184	86.6493	38.8184	89.5494	38.8184	86.6467	38.8184	89.501	38.8184	86.6753	38.8184	89.393	38.8184	86.7347	38.8184	89.2301	38.8184	86.8244	38.8184	89.0207	38.8184	86.9441	38.8184	88.7763	38.8184	87.0934	38.8184	88.5103	38.8184	87.272	38.8184	88.2363	38.8184	87.4789	38.8184	87.9668	38.8184	87.712
39.5508	88.5722	39.5508	88.332	39.5508	88.8205	39.5508	88.1059	39.5508	89.0693	39.5508	87.8993	39.5508	89.3104	39.5508	87.7162	39.5508	89.5347	39.5508	87.5599	39.5508	89.7327	39.5508	87.4326	39.5508	89.8948	39.5508	87.3358	39.5508	90.0123	39.5508	87.2703	39.5508	90.0776	39.5508	87.2362	39.5508	90.0857	39.5508	87.2334	39.5508	90.0341	39.5508	87.2614	39.5508	89.924	39.5508	87.3194	39.5508	89.7604	39.5508	87.4069	39.5508	89.552	39.5508	87.5233	39.5508	89.3101	39.5508	87.6684	39.5508	89.0482	39.5508	87.8417	39.5508	88.7797	39.5508	88.0424	39.5508	88.5167	39.5508	88.2687
41.0156	89.6223	41.0156	89.3812	41.0156	89.8698	41.0156	89.1529	41.0156	90.1163	41.0156	88.9429	41.0156	90.3535	41.0156	88.7556	41.0156	90.5727	41.0156	88.5946	41.0156	90.7644	41.0156	88.4624	41.0156	90.9194	41.0156	88.3608	41.0156	91.0295	41.0156	88.291	41.0156	91.0874	41.0156	88.2532	41.0156	91.0885	41.0156	88.2472	41.0156	91.0306	41.0156	88.2726	41.0156	90.9153	41.0156	88.3284	41.0156	90.7479	41.0156	88.4139	41.0156	90.5372	41.0156	88.5284	41.0156	90.2947	41.0156	88.6711	41.0156	90.0336	41.0156	88.8417	41.0156	89.7671	41.0156	89.0394	41.0156	89.507	41.0156	89.2623
42.4805	90.4531	42.4805	90.2146	42.4805	90.6964	42.4805	89.9874	42.4805	90.9373	42.4805	89.7769	42.4805	91.1676	42.4805	89.5878	42.4805	91.3788	42.4805	89.4237	42.4805	91.5619	42.4805	89.2877	42.4805	91.708	42.4805	89.1815	42.4805	91.8091	42.4805	89.1067	42.4805	91.8585	42.4805	89.0636	42.4805	91.8518	42.4805	89.0523	42.4805	91.7874	42.4805	89.0724	42.4805	91.667	42.4805	89.1231	42.4805	91.4963	42.4805	89.2035	42.4805	91.284	42.4805	89.3127	42.4805	91.0419	42.4805	89.4502	42.4805	90.7829	42.4805	89.6155	42.4805	90.52	42.4805	89.8076	42.4805	90.2645	42.4805	90.0251
43.9453	91.0456	43.9453	90.8083	43.9453	91.2866	43.9453	90.5812	43.9453	91.524	43.9453	90.3697	43.9453	91.7499	43.9453	90.1786	43.9453	91.9559	43.9453	90.0119	43.9453	92.1332	43.9453	89.8727	43.9453	92.2733	43.9453	89.7632	43.9453	92.3685	43.9453	89.685	43.9453	92.4124	43.9453	89.6387	43.9453	92.401	43.9453	89.6246	43.9453	92.3329	43.9453	89.6422	43.9453	92.2101	43.9453	89.6908	43.9453	92.0383	43.9453	89.7694	43.9453	91.8264	43.9453	89.8771	43.9453	91.5859	43.9453	90.013	43.9453	91.3295	43.9453	90.1765	43.9453	91.0697	43.9453	90.3665	43.9453	90.8175	43.9453	90.5812
45.4102	91.4531	45.4102	91.2186	45.4102	91.6898	45.4102	90.9925	45.4102	91.9216	45.4102	90.7805	45.4102	92.1407	45.4102	90.5874	45.4102	92.339	45.4102	90.4173	45.4102	92.5081	45.4102	90.2735	45.4102	92.6398	45.4102	90.1586	45.4102	92.7268	45.4102	90.0745	45.4102	92.7632	45.4102	90.0223	45.4102	92.7452	45.4102	90.0025	45.4102	92.6719	45.4102	90.015	45.4102	92.5458	45.4102	90.0593	45.4102	92.3724	45.4102	90.1343	45.4102	92.1609	45.4102	90.2391	45.4102	91.9224	45.4102	90.3726	45.4102	91.6692	45.4102	90.5336	45.4102	91.4134	45.4102	90.7209	45.4102	91.1652	45.4102	90.9326
47.6074	91.8919	47.6074	91.6699	47.6074	92.1151	47.6074	91.4555	47.6074	92.3327	47.6074	91.2542	47.6074	92.5369	47.6074	91.0709	47.6074	92.7199	47.6074	90.9094	47.6074	92.8736	47.6074	90.7729	47.6074	92.9902	47.6074	90.6639	47.6074	93.0629	47.6074	90.584	47.6074	93.0864	47.6074	90.534	47.6074	93.0578	47.6074	90.5143	47.6074	92.9771	47.6074	90.5243	47.6074	92.8475	47.6074	90.5632	47.6074	92.6754	47.6074	90.6298	47.6074	92.4704	47.6074	90.7228	47.6074	92.2437	47.6074	90.8412	47.6074	92.0073	47.6074	90.9838	47.6074	91.7721	47.6074	91.1499	47.6074	91.547	47.6074	91.3384
49.0723	92.0777	49.0723	91.857	49.0723	92.2989	49.0723	91.6434	49.0723	92.5136	49.0723	91.4426	49.0723	92.7143	49.0723	91.2593	49.0723	92.8929	49.0723	91.0978	49.0723	93.0416	49.0723	90.9614	49.0723	93.1526	49.0723	90.8524	49.0723	93.2194	49.0723	90.7726	49.0723	93.2371	49.0723	90.7227	49.0723	93.2029	49.0723	90.7027	49.0723	93.1172	49.0723	90.712	49.0723	92.9837	49.0723	90.7495	49.0723	92.8091	49.0723	90.8137	49.0723	92.6034	49.0723	90.9033	49.0723	92.378	49.0723	91.017	49.0723	92.1449	49.0723	91.1538	49.0723	91.9147	49.0723	91.3132	49.0723	91.696	49.0723	91.4944
50.5371	92.2086	50.5371	91.9872	50.5371	92.43	50.5371	91.7722	50.5371	92.6441	50.5371	91.5695	50.5371	92.8434	50.5371	91.3842	50.5371	93.0201	50.5371	91.2206	50.5371	93.1662	50.5371	91.0821	50.5371	93.2743	50.5371	90.9714	50.5371	93.3379	50.5371	90.8902	50.5371	93.3525	50.5371	90.8394	50.5371	93.3154	50.5371	90.819	50.5371	93.2271	50.5371	90.8282	50.5371	93.0916	50.5371	90.8659	50.5371	92.9158	50.5371	90.9304	50.5371	92.7096	50.5371	91.02	50.5371	92.4846	50.5371	91.1334	50.5371	92.2525	50.5371	91.2696	50.5371	92.024	50.5371	91.4278	50.5371	91.8072	50.5371	91.6074
52.7344	92.3682	52.7344	92.1492	52.7344	92.5863	52.7344	91.9357	52.7344	92.7963	52.7344	91.7339	52.7344	92.9908	52.7344	91.5488	52.7344	93.1619	52.7344	91.385	52.7344	93.3021	52.7344	91.2461	52.7344	93.4042	52.7344	91.135	52.7344	93.4622	52.7344	91.0534	52.7344	93.4715	52.7344	91.0023	52.7344	93.4301	52.7344	90.9816	52.7344	93.339	52.7344	90.9906	52.7344	93.2022	52.7344	91.0279	52.7344	93.027	52.7344	91.0916	52.7344	92.8235	52.7344	91.1799	52.7344	92.6028	52.7344	91.2911	52.7344	92.3766	52.7344	91.4239	52.7344	92.1547	52.7344	91.5776	52.7344	91.9448	52.7344	91.7516
54.1992	92.4347	54.1992	92.2175	54.1992	92.6504	54.1992	92.0056	54.1992	92.8577	54.1992	91.805	54.1992	93.049	54.1992	91.6208	54.1992	93.2168	54.1992	91.4578	54.1992	93.3534	54.1992	91.3196	54.1992	93.452	54.1992	91.2091	54.1992	93.5065	54.1992	91.1281	54.1992	93.513	54.1992	91.0777	54.1992	93.4695	54.1992	91.0576	54.1992	93.3772	54.1992	91.0671	54.1992	93.2404	54.1992	91.1047	54.1992	93.0666	54.1992	91.1683	54.1992	92.8657	54.1992	91.2559	54.1992	92.6489	54.1992	91.3658	54.1992	92.4274	54.1992	91.4965	54.1992	92.2106	54.1992	91.6471	54.1992	92.0058	54.1992	91.8172
56.3965	92.4904	56.3965	92.2757	56.3965	92.7031	56.3965	92.0658	56.3965	92.9068	56.3965	91.8668	56.3965	93.094	56.3965	91.6842	56.3965	93.2571	56.3965	91.5227	56.3965	93.3888	56.3965	91.3863	56.3965	93.4824	56.3965	91.2779	56.3965	93.5323	56.3965	91.1994	56.3965	93.5349	56.3965	91.1518	56.3965	93.4887	56.3965	91.1348	56.3965	93.3953	56.3965	91.1474	56.3965	93.2595	56.3965	91.1877	56.3965	93.0891	56.3965	91.2535	56.3965	92.8938	56.3965	91.3422	56.3965	92.6848	56.3965	91.4517	56.3965	92.4725	56.3965	91.58	56.3965	92.2656	56.3965	91.7263	56.3965	92.0702	56.3965	91.8899
