"SPL Vertical"
"On-Axis"		"10°"		"-10°"		"20°"		"-20°"		"30°"		"-30°"		"40°"		"-40°"		"50°"		"-50°"		"60°"		"-60°"		"70°"		"-70°"		"80°"		"-80°"		"90°"		"-90°"		"100°"		"-100°"		"110°"		"-110°"		"120°"		"-120°"		"130°"		"-130°"		"140°"		"-140°"		"150°"		"-150°"		"160°"		"-160°"		"170°"		"-170°"		"180°"
"Frequency / Hz"	"Sound Pressure Level / dB (re 20 µPa/V)  [2.83  V @ 1. m]"	"Frequency / Hz"	"Sound Pressure Level / dB (re 20 µPa/V)  [2.83  V @ 1. m]"	"Frequency / Hz"	"Sound Pressure Level / dB (re 20 µPa/V)  [2.83  V @ 1. m]"	"Frequency / Hz"	"Sound Pressure Level / dB (re 20 µPa/V)  [2.83  V @ 1. m]"	"Frequency / Hz"	"Sound Pressure Level / dB (re 20 µPa/V)  [2.83  V @ 1. m]"	"Frequency / Hz"	"Sound Pressure Level / dB (re 20 µPa/V)  [2.83  V @ 1. m]"	"Frequency / Hz"	"Sound Pressure Level / dB (re 20 µPa/V)  [2.83  V @ 1. m]"	"Frequency / Hz"	"Sound Pressure Level / dB (re 20 µPa/V)  [2.83  V @ 1. m]"	"Frequency / Hz"	"Sound Pressure Level / dB (re 20 µPa/V)  [2.83  V @ 1. m]"	"Frequency / Hz"	"Sound Pressure Level / dB (re 20 µPa/V)  [2.83  V @ 1. m]"	"Frequency / Hz"	"Sound Pressure Level / dB (re 20 µPa/V)  [2.83  V @ 1. m]"	"Frequency / Hz"	"Sound Pressure Level / dB (re 20 µPa/V)  [2.83  V @ 1. m]"	"Frequency / Hz"	"Sound Pressure Level / dB (re 20 µPa/V)  [2.83  V @ 1. m]"	"Frequency / Hz"	"Sound Pressure Level / dB (re 20 µPa/V)  [2.83  V @ 1. m]"	"Frequency / Hz"	"Sound Pressure Level / dB (re 20 µPa/V)  [2.83  V @ 1. m]"	"Frequency / Hz"	"Sound Pressure Level / dB (re 20 µPa/V)  [2.83  V @ 1. m]"	"Frequency / Hz"	"Sound Pressure Level / dB (re 20 µPa/V)  [2.83  V @ 1. m]"	"Frequency / Hz"	"Sound Pressure Level / dB (re 20 µPa/V)  [2.83  V @ 1. m]"	"Frequency / Hz"	"Sound Pressure Level / dB (re 20 µPa/V)  [2.83  V @ 1. m]"	"Frequency / Hz"	"Sound Pressure Level / dB (re 20 µPa/V)  [2.83  V @ 1. m]"	"Frequency / Hz"	"Sound Pressure Level / dB (re 20 µPa/V)  [2.83  V @ 1. m]"	"Frequency / Hz"	"Sound Pressure Level / dB (re 20 µPa/V)  [2.83  V @ 1. m]"	"Frequency / Hz"	"Sound Pressure Level / dB (re 20 µPa/V)  [2.83  V @ 1. m]"	"Frequency / Hz"	"Sound Pressure Level / dB (re 20 µPa/V)  [2.83  V @ 1. m]"	"Frequency / Hz"	"Sound Pressure Level / dB (re 20 µPa/V)  [2.83  V @ 1. m]"	"Frequency / Hz"	"Sound Pressure Level / dB (re 20 µPa/V)  [2.83  V @ 1. m]"	"Frequency / Hz"	"Sound Pressure Level / dB (re 20 µPa/V)  [2.83  V @ 1. m]"	"Frequency / Hz"	"Sound Pressure Level / dB (re 20 µPa/V)  [2.83  V @ 1. m]"	"Frequency / Hz"	"Sound Pressure Level / dB (re 20 µPa/V)  [2.83  V @ 1. m]"	"Frequency / Hz"	"Sound Pressure Level / dB (re 20 µPa/V)  [2.83  V @ 1. m]"	"Frequency / Hz"	"Sound Pressure Level / dB (re 20 µPa/V)  [2.83  V @ 1. m]"	"Frequency / Hz"	"Sound Pressure Level / dB (re 20 µPa/V)  [2.83  V @ 1. m]"	"Frequency / Hz"	"Sound Pressure Level / dB (re 20 µPa/V)  [2.83  V @ 1. m]"	"Frequency / Hz"	"Sound Pressure Level / dB (re 20 µPa/V)  [2.83  V @ 1. m]"	"Frequency / Hz"	"Sound Pressure Level / dB (re 20 µPa/V)  [2.83  V @ 1. m]"	"Frequency / Hz"	"Sound Pressure Level / dB (re 20 µPa/V)  [2.83  V @ 1. m]"
20.5078	61.386	20.5078	61.3097	20.5078	61.2931	20.5078	61.0617	20.5078	61.0275	20.5078	60.633	20.5078	60.5792	20.5078	60.0105	20.5078	59.9331	20.5078	59.1811	20.5078	59.0733	20.5078	58.1482	20.5078	57.9992	20.5078	56.9778	20.5078	56.7741	20.5078	55.9072	20.5078	55.646	20.5078	55.4426	20.5078	55.1672	20.5078	56.031	20.5078	55.8221	20.5078	57.4483	20.5078	57.3342	20.5078	59.1163	20.5078	59.0719	20.5078	60.6697	20.5078	60.6653	20.5078	61.9723	20.5078	61.9872	20.5078	62.9879	20.5078	63.0089	20.5078	63.7119	20.5078	63.7304	20.5078	64.1471	20.5078	64.1576	20.5078	64.2957
21.9727	62.3006	21.9727	62.2266	21.9727	62.2284	21.9727	62.0073	21.9727	62.0107	21.9727	61.6479	21.9727	61.6522	21.9727	61.1641	21.9727	61.1677	21.9727	60.5977	21.9727	60.5971	21.9727	60.0422	21.9727	60.0306	21.9727	59.6677	21.9727	59.6363	21.9727	59.6936	21.9727	59.6373	21.9727	60.2524	21.9727	60.1776	21.9727	61.2625	21.9727	61.1845	21.9727	62.502	21.9727	62.4338	21.9727	63.7653	21.9727	63.7128	21.9727	64.9248	21.9727	64.8884	21.9727	65.9145	21.9727	65.8917	21.9727	66.7024	21.9727	66.6897	21.9727	67.2728	21.9727	67.2667	21.9727	67.6176	21.9727	67.6153	21.9727	67.7324
23.4375	64.3778	23.4375	64.3225	23.4375	64.3334	23.4375	64.1715	23.4375	64.1925	23.4375	63.9373	23.4375	63.9666	23.4375	63.6464	23.4375	63.6805	23.4375	63.3474	23.4375	63.3803	23.4375	63.1188	23.4375	63.142	23.4375	63.0654	23.4375	63.0694	23.4375	63.2868	23.4375	63.2659	23.4375	63.8227	23.4375	63.7797	23.4375	64.6231	23.4375	64.5679	23.4375	65.5774	23.4375	65.5214	23.4375	66.5684	23.4375	66.5199	23.4375	67.5051	23.4375	67.4677	23.4375	68.3264	23.4375	68.3005	23.4375	68.9941	23.4375	68.978	23.4375	69.4847	23.4375	69.4758	23.4375	69.7838	23.4375	69.7799	23.4375	69.8832
24.9023	66.3788	24.9023	66.3427	24.9023	66.3556	24.9023	66.2525	24.9023	66.2767	24.9023	66.123	24.9023	66.1551	24.9023	65.9816	24.9023	66.0157	24.9023	65.87	24.9023	65.8981	24.9023	65.8442	24.9023	65.8566	24.9023	65.9651	24.9023	65.9534	24.9023	66.2787	24.9023	66.2393	24.9023	66.7943	24.9023	66.7313	24.9023	67.4769	24.9023	67.4005	24.9023	68.2613	24.9023	68.1833	24.9023	69.0744	24.9023	69.004	24.9023	69.8516	24.9023	69.7943	24.9023	70.5431	24.9023	70.5003	24.9023	71.1126	24.9023	71.0834	24.9023	71.5349	24.9023	71.5173	24.9023	71.7933	24.9023	71.7851	24.9023	71.8779
26.3672	68.4455	26.3672	68.4213	26.3672	68.4407	26.3672	68.3727	26.3672	68.4096	26.3672	68.312	26.3672	68.3627	26.3672	68.2601	26.3672	68.3186	26.3672	68.246	26.3672	68.3045	26.3672	68.3054	26.3672	68.3547	26.3672	68.4735	26.3672	68.5051	26.3672	68.7752	26.3672	68.7841	26.3672	69.2151	26.3672	69.2012	26.3672	69.7731	26.3672	69.7416	26.3672	70.4095	26.3672	70.3684	26.3672	71.075	26.3672	71.0324	26.3672	71.7209	26.3672	71.6828	26.3672	72.3046	26.3672	72.2743	26.3672	72.792	26.3672	72.7703	26.3672	73.1572	26.3672	73.1437	26.3672	73.3823	26.3672	73.3759	26.3672	73.4565
27.832	70.5101	27.832	70.5015	27.832	70.5089	27.832	70.4868	27.832	70.4995	27.832	70.4754	27.832	70.4894	27.832	70.482	27.832	70.4914	27.832	70.5261	27.832	70.5238	27.832	70.63	27.832	70.6088	27.832	70.8147	27.832	70.7689	27.832	71.0943	27.832	71.022	27.832	71.4712	27.832	71.3751	27.832	71.9328	27.832	71.8202	27.832	72.4536	27.832	72.3344	27.832	72.9995	27.832	72.8837	27.832	73.5335	27.832	73.4295	27.832	74.0205	27.832	73.934	27.832	74.4298	27.832	74.364	27.832	74.737	27.832	74.6931	27.832	74.9242	27.832	74.9023	27.832	74.9806
29.2969	72.1789	29.2969	72.1825	29.2969	72.1761	29.2969	72.1896	29.2969	72.1754	29.2969	72.207	29.2969	72.1819	29.2969	72.2448	29.2969	72.2049	29.2969	72.3163	29.2969	72.257	29.2969	72.4358	29.2969	72.3535	29.2969	72.6169	29.2969	72.5096	29.2969	72.8686	29.2969	72.7376	29.2969	73.1924	29.2969	73.0426	29.2969	73.5802	29.2969	73.4199	29.2969	74.0147	29.2969	73.8537	29.2969	74.4708	29.2969	74.3191	29.2969	74.9199	29.2969	74.7857	29.2969	75.3325	29.2969	75.2215	29.2969	75.6815	29.2969	75.5971	29.2969	75.9442	29.2969	75.8878	29.2969	76.1034	29.2969	76.0752	29.2969	76.1483
30.7617	73.7102	30.7617	73.7212	30.7617	73.7065	30.7617	73.7412	30.7617	73.7113	30.7617	73.7745	30.7617	73.7284	30.7617	73.8277	30.7617	73.7643	30.7617	73.9093	30.7617	73.8277	30.7617	74.0288	30.7617	73.9289	30.7617	74.1951	30.7617	74.0779	30.7617	74.4142	30.7617	74.2828	30.7617	74.6878	30.7617	74.5469	30.7617	75.011	30.7617	74.867	30.7617	75.3718	30.7617	75.2319	30.7617	75.7522	30.7617	75.6232	30.7617	76.1296	30.7617	76.0171	30.7617	76.4795	30.7617	76.3874	30.7617	76.7783	30.7617	76.7087	30.7617	77.0049	30.7617	76.9586	30.7617	77.1433	30.7617	77.1202	30.7617	77.1829
32.2266	74.9644	32.2266	74.9742	32.2266	74.965	32.2266	74.9958	32.2266	74.9767	32.2266	75.032	32.2266	75.0022	32.2266	75.0876	32.2266	75.0457	32.2266	75.1685	32.2266	75.1132	32.2266	75.2813	32.2266	75.2118	32.2266	75.432	32.2266	75.3482	32.2266	75.625	32.2266	75.5282	32.2266	75.8615	32.2266	75.7544	32.2266	76.1377	32.2266	76.025	32.2266	76.4449	32.2266	76.332	32.2266	76.7689	32.2266	76.6618	32.2266	77.0915	32.2266	76.9957	32.2266	77.3922	32.2266	77.3119	32.2266	77.6502	32.2266	77.5883	32.2266	77.8467	32.2266	77.8049	32.2266	77.9668	32.2266	77.9458	32.2266	78.0009
33.6914	76.0444	33.6914	76.0548	33.6914	76.0465	33.6914	76.0784	33.6914	76.0616	33.6914	76.1174	33.6914	76.0912	33.6914	76.1748	33.6914	76.1385	33.6914	76.2546	33.6914	76.2073	33.6914	76.3611	33.6914	76.3023	33.6914	76.4985	33.6914	76.4282	33.6914	76.6695	33.6914	76.589	33.6914	76.875	33.6914	76.7864	33.6914	77.1123	33.6914	77.0191	33.6914	77.3746	33.6914	77.2812	33.6914	77.6511	33.6914	77.5622	33.6914	77.927	33.6914	77.8471	33.6914	78.1853	33.6914	78.118	33.6914	78.4079	33.6914	78.3559	33.6914	78.5783	33.6914	78.543	33.6914	78.6828	33.6914	78.665	33.6914	78.7127
35.1562	76.9629	35.1562	76.9738	35.1562	76.9655	35.1562	76.9988	35.1562	76.9819	35.1562	77.039	35.1562	77.0131	35.1562	77.0966	35.1562	77.0612	35.1562	77.1741	35.1562	77.1286	35.1562	77.2742	35.1562	77.2185	35.1562	77.3996	35.1562	77.334	35.1562	77.5522	35.1562	77.4777	35.1562	77.7322	35.1562	77.6508	35.1562	77.9375	35.1562	77.8522	35.1562	78.163	35.1562	78.0775	35.1562	78.4	35.1562	78.3184	35.1562	78.6366	35.1562	78.5629	35.1562	78.8584	35.1562	78.7961	35.1562	79.0502	35.1562	79.0017	35.1562	79.1972	35.1562	79.1642	35.1562	79.2874	35.1562	79.2707	35.1562	79.3128
36.6211	78.4146	36.6211	78.4257	36.6211	78.419	36.6211	78.4526	36.6211	78.4391	36.6211	78.4961	36.6211	78.4756	36.6211	78.5572	36.6211	78.5294	36.6211	78.6373	36.6211	78.6021	36.6211	78.7378	36.6211	78.6953	36.6211	78.86	36.6211	78.8106	36.6211	79.0047	36.6211	78.9493	36.6211	79.1715	36.6211	79.1118	36.6211	79.3583	36.6211	79.2966	36.6211	79.5609	36.6211	79.5001	36.6211	79.7723	36.6211	79.7152	36.6211	79.9827	36.6211	79.9322	36.6211	80.1803	36.6211	80.1385	36.6211	80.3517	36.6211	80.3199	36.6211	80.484	36.6211	80.4627	36.6211	80.5662	36.6211	80.5557	36.6211	80.591
38.0859	79.0692	38.0859	79.0798	38.0859	79.0732	38.0859	79.1051	38.0859	79.0918	38.0859	79.1454	38.0859	79.1255	38.0859	79.2013	38.0859	79.1749	38.0859	79.2734	38.0859	79.2407	38.0859	79.3626	38.0859	79.3239	38.0859	79.4695	38.0859	79.4254	38.0859	79.5946	38.0859	79.5461	38.0859	79.7375	38.0859	79.686	38.0859	79.8966	38.0859	79.8441	38.0859	80.0686	38.0859	80.0173	38.0859	80.2481	38.0859	80.2002	38.0859	80.4271	38.0859	80.3849	38.0859	80.5957	38.0859	80.5609	38.0859	80.7426	38.0859	80.7161	38.0859	80.8564	38.0859	80.8388	38.0859	80.9274	38.0859	80.9186	38.0859	80.949
39.5508	79.5496	39.5508	79.5586	39.5508	79.555	39.5508	79.5821	39.5508	79.5748	39.5508	79.6202	39.5508	79.6091	39.5508	79.6731	39.5508	79.6582	39.5508	79.7411	39.5508	79.7221	39.5508	79.8244	39.5508	79.8014	39.5508	79.9232	39.5508	79.8964	39.5508	80.0375	39.5508	80.0073	39.5508	80.1666	39.5508	80.1339	39.5508	80.3092	39.5508	80.2751	39.5508	80.4623	39.5508	80.4284	39.5508	80.6213	39.5508	80.5894	39.5508	80.7796	39.5508	80.7514	39.5508	80.9287	39.5508	80.9053	39.5508	81.0588	39.5508	81.0411	39.5508	81.1599	39.5508	81.1482	39.5508	81.2235	39.5508	81.2176	39.5508	81.2434
41.0156	80.0005	41.0156	80.0079	41.0156	80.0066	41.0156	80.0288	41.0156	80.0261	41.0156	80.0631	41.0156	80.059	41.0156	80.1107	41.0156	80.1049	41.0156	80.1713	41.0156	80.1639	41.0156	80.2449	41.0156	80.2355	41.0156	80.3311	41.0156	80.3198	41.0156	80.4296	41.0156	80.4164	41.0156	80.5397	41.0156	80.5249	41.0156	80.6602	41.0156	80.6443	41.0156	80.7888	41.0156	80.7725	41.0156	80.9219	41.0156	80.9063	41.0156	81.0543	41.0156	81.0403	41.0156	81.1792	41.0156	81.1676	41.0156	81.2884	41.0156	81.2797	41.0156	81.3738	41.0156	81.3681	41.0156	81.4279	41.0156	81.4251	41.0156	81.4457
42.4805	80.5072	42.4805	80.5135	42.4805	80.5139	42.4805	80.5328	42.4805	80.5337	42.4805	80.5648	42.4805	80.566	42.4805	80.6094	42.4805	80.6107	42.4805	80.6659	42.4805	80.6671	42.4805	80.7339	42.4805	80.7348	42.4805	80.8129	42.4805	80.8132	42.4805	80.9023	42.4805	80.9018	42.4805	81.0014	42.4805	81.0001	42.4805	81.109	42.4805	81.107	42.4805	81.2231	42.4805	81.2208	42.4805	81.3408	42.4805	81.3385	42.4805	81.4578	42.4805	81.456	42.4805	81.5682	42.4805	81.5671	42.4805	81.6652	42.4805	81.6647	42.4805	81.7414	42.4805	81.7413	42.4805	81.7903	42.4805	81.7904	42.4805	81.8072
43.9453	80.9246	43.9453	80.9302	43.9453	80.9314	43.9453	80.9482	43.9453	80.9503	43.9453	80.9781	43.9453	80.9811	43.9453	81.0195	43.9453	81.0231	43.9453	81.0717	43.9453	81.0756	43.9453	81.134	43.9453	81.1379	43.9453	81.2057	43.9453	81.209	43.9453	81.2858	43.9453	81.2883	43.9453	81.3736	43.9453	81.375	43.9453	81.4678	43.9453	81.4681	43.9453	81.5669	43.9453	81.5661	43.9453	81.6684	43.9453	81.6669	43.9453	81.7687	43.9453	81.7669	43.9453	81.863	43.9453	81.8614	43.9453	81.9457	43.9453	81.9444	43.9453	82.0105	43.9453	82.0098	43.9453	82.052	43.9453	82.0517	43.9453	82.0662
45.4102	81.3092	45.4102	81.3148	45.4102	81.3156	45.4102	81.3323	45.4102	81.3338	45.4102	81.3612	45.4102	81.3633	45.4102	81.401	45.4102	81.4034	45.4102	81.4506	45.4102	81.4531	45.4102	81.5093	45.4102	81.5114	45.4102	81.5758	45.4102	81.5773	45.4102	81.6492	45.4102	81.6497	45.4102	81.7285	45.4102	81.7278	45.4102	81.8125	45.4102	81.8103	45.4102	81.8996	45.4102	81.8962	45.4102	81.9878	45.4102	81.9836	45.4102	82.0741	45.4102	82.0696	45.4102	82.1548	45.4102	82.1505	45.4102	82.2252	45.4102	82.2216	45.4102	82.2801	45.4102	82.2775	45.4102	82.3149	45.4102	82.3136	45.4102	82.3265
46.875	81.6663	46.875	81.6719	46.875	81.6723	46.875	81.6887	46.875	81.6895	46.875	81.7164	46.875	81.7176	46.875	81.754	46.875	81.7555	46.875	81.8007	46.875	81.8023	46.875	81.8551	46.875	81.8567	46.875	81.9162	46.875	81.9175	46.875	81.9827	46.875	81.9834	46.875	82.0534	46.875	82.0533	46.875	82.1272	46.875	82.1262	46.875	82.2028	46.875	82.2009	46.875	82.2785	46.875	82.2758	46.875	82.3519	46.875	82.3489	46.875	82.4201	46.875	82.4172	46.875	82.4794	46.875	82.4768	46.875	82.5255	46.875	82.5237	46.875	82.5548	46.875	82.5539	46.875	82.5646
48.3398	81.9872	48.3398	81.9919	48.3398	81.9935	48.3398	82.0072	48.3398	82.0104	48.3398	82.0326	48.3398	82.0374	48.3398	82.0673	48.3398	82.0735	48.3398	82.11	48.3398	82.1175	48.3398	82.1596	48.3398	82.1681	48.3398	82.2147	48.3398	82.2238	48.3398	82.274	48.3398	82.2832	48.3398	82.3361	48.3398	82.345	48.3398	82.4001	48.3398	82.4081	48.3398	82.4647	48.3398	82.4716	48.3398	82.5286	48.3398	82.5342	48.3398	82.59	48.3398	82.5943	48.3398	82.6467	48.3398	82.6498	48.3398	82.6957	48.3398	82.6979	48.3398	82.734	48.3398	82.7354	48.3398	82.7586	48.3398	82.7592	48.3398	82.7672
51.2695	82.6283	51.2695	82.6319	51.2695	82.6342	51.2695	82.6449	51.2695	82.6496	51.2695	82.6667	51.2695	82.6736	51.2695	82.6963	51.2695	82.7053	51.2695	82.7326	51.2695	82.7433	51.2695	82.7741	51.2695	82.7861	51.2695	82.8192	51.2695	82.832	51.2695	82.8666	51.2695	82.8794	51.2695	82.9148	51.2695	82.9268	51.2695	82.9626	51.2695	82.9733	51.2695	83.0091	51.2695	83.0178	51.2695	83.0533	51.2695	83.0599	51.2695	83.0945	51.2695	83.0989	51.2695	83.1313	51.2695	83.134	51.2695	83.1626	51.2695	83.1639	51.2695	83.1865	51.2695	83.187	51.2695	83.2016	51.2695	83.2018	51.2695	83.2068
52.7344	82.8936	52.7344	82.8985	52.7344	82.8982	52.7344	82.9128	52.7344	82.9122	52.7344	82.9358	52.7344	82.9349	52.7344	82.9663	52.7344	82.9652	52.7344	83.003	52.7344	83.0017	52.7344	83.0443	52.7344	83.0426	52.7344	83.0885	52.7344	83.0862	52.7344	83.1338	52.7344	83.1307	52.7344	83.1787	52.7344	83.1747	52.7344	83.222	52.7344	83.2168	52.7344	83.2627	52.7344	83.2562	52.7344	83.3001	52.7344	83.2926	52.7344	83.3335	52.7344	83.3255	52.7344	83.3624	52.7344	83.3546	52.7344	83.3861	52.7344	83.3792	52.7344	83.4035	52.7344	83.3985	52.7344	83.4139	52.7344	83.4112	52.7344	83.4165
54.1992	83.2087	54.1992	83.216	54.1992	83.2101	54.1992	83.2318	54.1992	83.2202	54.1992	83.2552	54.1992	83.2385	54.1992	83.285	54.1992	83.2639	54.1992	83.3197	54.1992	83.295	54.1992	83.3576	54.1992	83.3302	54.1992	83.3968	54.1992	83.3676	54.1992	83.4356	54.1992	83.4053	54.1992	83.4726	54.1992	83.4419	54.1992	83.5065	54.1992	83.4761	54.1992	83.5365	54.1992	83.5071	54.1992	83.5622	54.1992	83.5346	54.1992	83.5837	54.1992	83.5586	54.1992	83.6008	54.1992	83.5793	54.1992	83.6137	54.1992	83.5966	54.1992	83.6223	54.1992	83.6104	54.1992	83.6263	54.1992	83.6202	54.1992	83.6256
55.6641	83.508	55.6641	83.5148	55.6641	83.5093	55.6641	83.5293	55.6641	83.5186	55.6641	83.5508	55.6641	83.5354	55.6641	83.578	55.6641	83.5585	55.6641	83.6095	55.6641	83.5867	55.6641	83.6435	55.6641	83.6182	55.6641	83.6783	55.6641	83.6512	55.6641	83.7121	55.6641	83.6839	55.6641	83.7433	55.6641	83.7146	55.6641	83.7708	55.6641	83.7422	55.6641	83.7938	55.6641	83.7659	55.6641	83.8122	55.6641	83.7857	55.6641	83.8262	55.6641	83.8019	55.6641	83.8362	55.6641	83.815	55.6641	83.8426	55.6641	83.8256	55.6641	83.846	55.6641	83.8341	55.6641	83.8466	55.6641	83.8405	55.6641	83.8447
58.5938	84.1042	58.5938	84.1078	58.5938	84.108	58.5938	84.1184	58.5938	84.119	58.5938	84.1352	58.5938	84.1364	58.5938	84.1571	58.5938	84.1592	58.5938	84.1825	58.5938	84.1857	58.5938	84.2097	58.5938	84.2141	58.5938	84.2369	58.5938	84.2422	58.5938	84.2621	58.5938	84.2681	58.5938	84.2838	58.5938	84.29	58.5938	84.3009	58.5938	84.3066	58.5938	84.3127	58.5938	84.3174	58.5938	84.3193	58.5938	84.3226	58.5938	84.3214	58.5938	84.3232	58.5938	84.3201	58.5938	84.3206	58.5938	84.317	58.5938	84.3166	58.5938	84.3134	58.5938	84.3126	58.5938	84.3105	58.5938	84.31	58.5938	84.3092
60.0586	84.3034	60.0586	84.3064	60.0586	84.3079	60.0586	84.3164	60.0586	84.3193	60.0586	84.3329	60.0586	84.3371	60.0586	84.3546	60.0586	84.36	60.0586	84.3801	60.0586	84.3863	60.0586	84.4075	60.0586	84.4141	60.0586	84.4348	60.0586	84.4413	60.0586	84.4602	60.0586	84.4659	60.0586	84.4818	60.0586	84.486	60.0586	84.4983	60.0586	84.5006	60.0586	84.5091	60.0586	84.5089	60.0586	84.5141	60.0586	84.5114	60.0586	84.5139	60.0586	84.5093	60.0586	84.51	60.0586	84.5042	60.0586	84.504	60.0586	84.4981	60.0586	84.4976	60.0586	84.4928	60.0586	84.4924	60.0586	84.4897	60.0586	84.4896
62.9883	84.7454	62.9883	84.7487	62.9883	84.7503	62.9883	84.7598	62.9883	84.7631	62.9883	84.7779	62.9883	84.7829	62.9883	84.8019	62.9883	84.8087	62.9883	84.83	62.9883	84.8387	62.9883	84.8605	62.9883	84.8708	62.9883	84.8911	62.9883	84.9026	62.9883	84.9197	62.9883	84.9319	62.9883	84.9443	62.9883	84.9566	62.9883	84.9633	62.9883	84.975	62.9883	84.9759	62.9883	84.9862	62.9883	84.9819	62.9883	84.9903	62.9883	84.9821	62.9883	84.9883	62.9883	84.9779	62.9883	84.9821	62.9883	84.9713	62.9883	84.9738	62.9883	84.9646	62.9883	84.9659	62.9883	84.9597	62.9883	84.9602	62.9883	84.9581
64.4531	84.9745	64.4531	84.9751	64.4531	84.9812	64.4531	84.9829	64.4531	84.995	64.4531	84.9971	64.4531	85.0152	64.4531	85.0167	64.4531	85.0405	64.4531	85.0401	64.4531	85.0693	64.4531	85.0655	64.4531	85.0994	64.4531	85.0909	64.4531	85.1286	64.4531	85.1142	64.4531	85.1545	64.4531	85.1335	64.4531	85.1749	64.4531	85.1474	64.4531	85.1884	64.4531	85.155	64.4531	85.1938	64.4531	85.1562	64.4531	85.1915	64.4531	85.152	64.4531	85.1825	64.4531	85.144	64.4531	85.1689	64.4531	85.1348	64.4531	85.1536	64.4531	85.1266	64.4531	85.1392	64.4531	85.1219	64.4531	85.1282	64.4531	85.1223
67.3828	85.4706	67.3828	85.4691	67.3828	85.4776	67.3828	85.4727	67.3828	85.4898	67.3828	85.481	67.3828	85.5066	67.3828	85.4929	67.3828	85.5269	67.3828	85.5071	67.3828	85.5492	67.3828	85.5221	67.3828	85.5716	67.3828	85.536	67.3828	85.5919	67.3828	85.5471	67.3828	85.6078	67.3828	85.5537	67.3828	85.6171	67.3828	85.5544	67.3828	85.6184	67.3828	85.5488	67.3828	85.6108	67.3828	85.5372	67.3828	85.5947	67.3828	85.5208	67.3828	85.5717	67.3828	85.502	67.3828	85.5445	67.3828	85.4837	67.3828	85.5164	67.3828	85.4692	67.3828	85.4914	67.3828	85.4614	67.3828	85.4726	67.3828	85.4623
