"Horizontal Reflections"							
"Front"		"Side"		"Rear"		"Total Horizontal Reflection"	
"Frequency [Hz]"	"Sound Pessure Level [dB]  / [2.83V 1m] "	"Frequency [Hz]"	"Sound Pessure Level [dB]  / [2.83V 1m] "	"Frequency [Hz]"	"Sound Pessure Level [dB]  / [2.83V 1m] "	"Frequency [Hz]"	"Sound Pessure Level [dB]  / [2.83V 1m] "
20.5078	57.3341	20.5078	57.5249	20.5078	65.2052	20.5078	63.0365
21.2402	58.2699	21.2402	58.362	21.2402	65.8885	21.2402	63.7455
21.9727	59.6158	21.9727	59.6939	21.9727	66.7188	21.9727	64.6481
22.7051	60.0191	22.7051	60.241	22.7051	67.3091	22.7051	65.2234
23.4375	61.5816	23.4375	61.8436	23.4375	68.1232	23.4375	66.16
24.1699	62.4002	24.1699	62.6085	24.1699	68.6461	24.1699	66.7289
25.6348	64.0628	25.6348	64.4092	25.6348	69.8531	25.6348	68.0376
26.3672	64.9591	26.3672	65.3071	26.3672	70.3805	26.3672	68.641
27.0996	65.7954	27.0996	66.1498	27.0996	70.9029	27.0996	69.2327
27.832	66.5518	27.832	66.9175	27.832	71.3856	27.832	69.7801
29.2969	68.018	29.2969	68.405	29.2969	72.3501	29.2969	70.8717
30.0293	68.518	30.0293	68.9102	30.0293	72.6867	30.0293	71.252
31.4941	69.7718	31.4941	70.1664	31.4941	73.4911	31.4941	72.1807
32.2266	70.2571	32.2266	70.6651	32.2266	73.8491	32.2266	72.5779
33.6914	71.2898	33.6914	71.7138	33.6914	74.6058	33.6914	73.4203
34.4238	71.9336	34.4238	72.3573	34.4238	75.0676	34.4238	73.9386
35.8887	72.9746	35.8887	73.3634	35.8887	75.7518	35.8887	74.7316
37.3535	73.7537	37.3535	74.1308	37.3535	76.3016	37.3535	75.3565
38.8184	74.4317	38.8184	74.8134	38.8184	76.83	38.8184	75.9379
39.5508	74.8588	39.5508	75.2419	39.5508	77.166	39.5508	76.3065
41.0156	75.6311	41.0156	75.9878	41.0156	77.7018	41.0156	76.9222
42.4805	76.1867	42.4805	76.5279	42.4805	78.1056	42.4805	77.379
43.9453	76.832	43.9453	77.1753	43.9453	78.6477	43.9453	77.9607
45.4102	77.4593	45.4102	77.7937	45.4102	79.1508	45.4102	78.5095
47.6074	78.3475	47.6074	78.6719	47.6074	79.8824	47.6074	79.3002
49.0723	78.8682	49.0723	79.1789	49.0723	80.2879	49.0723	79.7484
50.5371	79.3645	50.5371	79.6695	50.5371	80.7056	50.5371	80.1965
52.7344	80.1071	52.7344	80.4007	52.7344	81.3252	52.7344	80.8637
54.1992	80.5937	54.1992	80.8765	54.1992	81.7253	54.1992	81.297
56.3965	81.297	56.3965	81.5717	56.3965	82.3351	56.3965	81.944
58.5938	82.0127	58.5938	82.2731	58.5938	82.944	58.5938	82.5946
60.0586	82.4204	60.0586	82.6666	60.0586	83.268	60.0586	82.951
62.2559	82.9951	62.2559	83.2282	62.2559	83.7519	62.2559	83.4709
64.4531	83.5941	64.4531	83.8174	64.4531	84.2766	64.4531	84.0257
66.6504	84.0789	66.6504	84.2805	66.6504	84.6478	66.6504	84.4414
69.5801	84.8139	69.5801	84.9993	69.5801	85.2961	69.5801	85.1243
71.7773	85.2097	71.7773	85.3933	71.7773	85.6591	71.7773	85.5016
73.9746	85.7164	73.9746	85.8839	73.9746	86.0762	73.9746	85.9551
76.9043	86.1404	76.9043	86.3034	76.9043	86.4619	76.9043	86.3572
79.834	86.5592	79.834	86.7154	79.834	86.8481	79.834	86.7565
82.7637	87.0882	82.7637	87.1832	82.7637	87.129	82.7637	87.1363
85.6934	87.441	85.6934	87.512	85.6934	87.3521	85.6934	87.4143
88.623	87.4261	88.623	87.5786	88.623	87.6286	88.623	87.576
91.5527	87.4646	91.5527	87.6593	91.5527	87.8593	91.5527	87.7297
94.4824	87.8787	94.4824	87.9376	94.4824	87.8204	94.4824	87.8646
98.1445	88.0643	98.1445	88.0999	98.1445	87.8528	98.1445	87.9641
101.807	88.0616	101.807	88.0967	101.807	87.8816	101.807	87.9775
105.469	88.0791	105.469	88.0891	105.469	87.8331	105.469	87.9539
109.131	88.1852	109.131	88.1847	109.131	87.9068	109.131	88.0404
112.793	88.2017	112.793	88.1885	112.793	87.9006	112.793	88.0416
116.455	88.1392	116.455	88.1197	116.455	87.8707	116.455	87.994
120.85	88.0568	120.85	87.9877	120.85	87.6921	120.85	87.8482
125.244	88.0551	125.244	87.9458	125.244	87.4934	125.244	87.7356
129.639	87.7645	129.639	87.6624	129.639	87.1404	129.639	87.416
134.033	87.3901	134.033	87.3335	134.033	87.0555	134.033	87.2004
138.428	87.3457	138.428	87.2331	138.428	86.9639	138.428	87.116
143.555	87.2677	143.555	87.0847	143.555	86.6385	143.555	86.8931
148.682	87.0743	148.682	86.8706	148.682	86.4158	148.682	86.6791
153.809	87.0248	153.809	86.7353	153.809	86.1185	153.809	86.4828
159.668	86.9339	159.668	86.6381	159.668	85.9496	159.668	86.3524
164.795	86.7239	164.795	86.4485	164.795	85.9138	164.795	86.233
170.654	86.4485	170.654	86.1506	170.654	85.6609	170.654	85.9621
176.514	86.3017	176.514	85.9165	176.514	85.3424	176.514	85.706
183.105	86.1026	183.105	85.6526	183.105	84.9415	183.105	85.3909
189.697	85.9472	189.697	85.46	189.697	84.6275	189.697	85.1496
196.289	85.8786	196.289	85.3552	196.289	84.5546	196.289	85.0682
202.881	85.8034	202.881	85.1926	202.881	84.301	202.881	84.884
210.205	85.5413	210.205	84.8902	210.205	83.8012	210.205	84.5015
217.529	85.4362	217.529	84.7632	217.529	83.7109	217.529	84.3965
225.586	85.3492	225.586	84.5865	225.586	83.5412	225.586	84.2452
232.91	85.3898	232.91	84.5211	232.91	83.2786	232.91	84.1198
241.699	85.117	241.699	84.2642	241.699	82.7915	241.699	83.7601
249.756	85.2436	249.756	84.3071	249.756	82.4933	249.756	83.6854
258.545	85.1606	258.545	84.2767	258.545	82.6699	258.545	83.7248
268.066	84.7644	268.066	83.7909	268.066	81.8742	268.066	83.1386
277.588	84.5687	277.588	83.654	277.588	82.1874	277.588	83.169
287.109	84.6383	287.109	83.5288	287.109	81.8839	287.109	83.0237
297.363	84.65	297.363	83.6419	297.363	81.1523	297.363	82.7828
307.617	84.2322	307.617	83.3674	307.617	81.338	307.617	82.6402
318.604	83.7886	318.604	82.8274	318.604	80.6035	318.604	82.0529
329.59	83.7933	329.59	82.4479	329.59	81.2285	329.59	82.1857
341.309	84.9379	341.309	82.8489	341.309	81.9882	341.309	82.9571
353.76	85.6944	353.76	83.8341	353.76	81.4183	353.76	83.273
366.211	85.298	366.211	83.7101	366.211	80.7158	366.211	82.8636
378.662	85.2805	378.662	83.7892	378.662	81.0505	378.662	82.9947
392.578	84.372	392.578	82.9541	392.578	79.9571	392.578	82.0496
405.762	83.9552	405.762	82.2979	405.762	79.9407	405.762	81.6895
420.41	84.652	420.41	83.0782	420.41	79.496	420.41	82.0461
435.059	85.2171	435.059	83.6503	435.059	80.4417	435.059	82.7287
450.439	85.9391	450.439	84.3784	450.439	80.7303	450.439	83.3224
466.553	85.8313	466.553	84.2698	466.553	80.6017	466.553	83.2082
482.666	85.4985	482.666	84.0736	482.666	79.7726	482.666	82.788
500.244	85.0759	500.244	83.6821	500.244	79.6187	500.244	82.4493
517.822	84.8619	517.822	83.2871	517.822	79.2514	517.822	82.1271
536.133	85.0079	536.133	83.1111	536.133	78.2328	536.133	81.8638
554.443	84.9892	554.443	83.641	554.443	77.9005	554.443	81.9899
574.219	84.7722	574.219	83.4334	574.219	78.2262	574.219	81.894
594.727	84.4424	594.727	82.7004	594.727	78.4072	594.727	81.5346
615.234	84.4049	615.234	83.0753	615.234	77.2902	615.234	81.4078
637.207	84.5153	637.207	82.7141	637.207	78.4568	637.207	81.58
659.912	84.4959	659.912	82.6818	659.912	77.6587	659.912	81.3685
683.35	84.6516	683.35	82.5113	683.35	77.799	683.35	81.401
706.787	84.9508	706.787	82.5383	706.787	78.1835	706.787	81.6247
731.689	85.1006	731.689	82.5689	731.689	77.8444	731.689	81.621
758.057	85.3937	758.057	82.2938	758.057	78.202	758.057	81.7411
784.424	85.3031	784.424	82.0409	784.424	77.8496	784.424	81.5394
812.256	85.5701	812.256	81.9262	812.256	77.4682	812.256	81.5491
840.82	85.7705	840.82	82.1948	840.82	77.2179	840.82	81.6815
870.85	85.9832	870.85	82.2326	870.85	77.0651	870.85	81.7728
901.611	85.8025	901.611	82.6045	901.611	76.5375	901.611	81.7128
933.105	85.8157	933.105	82.4501	933.105	77.1181	933.105	81.7669
966.064	86.4018	966.064	82.8076	966.064	76.3554	966.064	82.0612
999.756	86.0035	999.756	82.6673	999.756	76.081	999.756	81.7672
1,034.91	86.031	1,034.91	82.5124	1,034.91	75.6187	1,034.91	81.6657
1,071.53	85.3101	1,071.53	81.8738	1,071.53	74.5342	1,071.53	80.927
1,109.62	85.0391	1,109.62	81.5828	1,109.62	74.1498	1,109.62	80.6356
1,148.44	85.1515	1,148.44	81.6225	1,148.44	73.8956	1,148.44	80.6809
1,189.45	85.6863	1,189.45	81.8645	1,189.45	74.1589	1,189.45	81.087
1,231.2	85.7904	1,231.2	81.388	1,231.2	73.3844	1,231.2	80.9169
1,274.41	85.8666	1,274.41	80.9034	1,274.41	72.7892	1,274.41	80.7664
1,319.82	85.4767	1,319.82	80.4512	1,319.82	71.9239	1,319.82	80.3206
1,365.97	85.0459	1,365.97	80.3317	1,365.97	72.3853	1,365.97	80.0546
1,414.31	84.6586	1,414.31	80.0158	1,414.31	72.1677	1,414.31	79.7041
1,464.11	84.9704	1,464.11	80.4681	1,464.11	72.1718	1,464.11	80.0308
1,515.38	85.1714	1,515.38	80.7253	1,515.38	71.8867	1,515.38	80.2094
1,568.85	84.9719	1,568.85	80.7169	1,568.85	71.0888	1,568.85	80.0275
1,624.51	85.2518	1,624.51	79.9325	1,624.51	70.9299	1,624.51	79.9584
1,681.64	84.7176	1,681.64	79.4818	1,681.64	71.2124	1,681.64	79.506
1,740.97	85.0615	1,740.97	80.2704	1,740.97	70.9413	1,740.97	79.9336
1,802.49	85.5555	1,802.49	80.446	1,802.49	71.8395	1,802.49	80.3632
1,866.21	85.6883	1,866.21	80.2742	1,866.21	71.8154	1,866.21	80.4002
1,932.13	84.7343	1,932.13	80.2839	1,932.13	71.1563	1,932.13	79.7489
2,000.24	84.6806	2,000.24	80.7411	2,000.24	70.9269	2,000.24	79.8502
2,070.56	85.5372	2,070.56	80.8333	2,070.56	71.5192	2,070.56	80.4425
2,143.8	85.1841	2,143.8	79.9671	2,143.8	71.1707	2,143.8	79.9401
2,219.24	83.5695	2,219.24	79.428	2,219.24	69.8962	2,219.24	78.6768
2,297.61	83.8753	2,297.61	79.6638	2,297.61	69.3194	2,297.61	78.9032
2,378.17	84.3527	2,378.17	79.8279	2,378.17	68.527	2,378.17	79.2133
2,462.4	83.9542	2,462.4	78.9947	2,462.4	68.2032	2,462.4	78.6839
2,548.83	83.5031	2,548.83	78.6727	2,548.83	67.1029	2,548.83	78.2434
2,638.92	83.977	2,638.92	79.4695	2,638.92	67.7565	2,638.92	78.8262
2,731.93	84.1738	2,731.93	79.7519	2,731.93	67.7058	2,731.93	79.0409
2,828.61	84.5791	2,828.61	80.0863	2,828.61	68.1558	2,828.61	79.4248
2,928.22	84.3625	2,928.22	80.2151	2,928.22	67.8184	2,928.22	79.3185
3,031.49	84.3203	3,031.49	79.6318	3,031.49	66.7873	3,031.49	79.0644
3,138.43	84.6886	3,138.43	79.7238	3,138.43	67.1077	3,138.43	79.3456
3,249.02	84.5543	3,249.02	79.641	3,249.02	67.136	3,249.02	79.2321
3,363.28	84.2881	3,363.28	79.2789	3,363.28	66.9748	3,363.28	78.9404
3,481.93	84.2697	3,481.93	79.5185	3,481.93	67.6285	3,481.93	79.025
3,604.98	84.3241	3,604.98	79.5051	3,604.98	68.0012	3,604.98	79.0711
3,732.42	83.8759	3,732.42	79.1118	3,732.42	67.2962	3,732.42	78.6296
3,863.53	84.1493	3,863.53	79.3662	3,863.53	67.0891	3,863.53	78.8793
3,999.76	84.1566	3,999.76	79.0798	3,999.76	67.0323	3,999.76	78.7952
4,141.11	83.9547	4,141.11	78.985	4,141.11	66.7628	4,141.11	78.623
4,286.87	84.4911	4,286.87	79.4502	4,286.87	67.2671	4,286.87	79.1369
4,438.48	84.3462	4,438.48	79.6717	4,438.48	66.7645	4,438.48	79.0932
4,594.48	85.0498	4,594.48	80.3452	4,594.48	67.1037	4,594.48	79.7765
4,757.08	85.1852	4,757.08	80.5726	4,757.08	67.2394	4,757.08	79.9412
4,924.8	85.3808	4,924.8	80.045	4,924.8	66.4726	4,924.8	79.8915
5,098.39	84.9885	5,098.39	79.9476	5,098.39	67.3493	5,098.39	79.6207
5,277.83	84.6988	5,277.83	79.2286	5,277.83	65.7503	5,277.83	79.1703
5,463.87	84.4027	5,463.87	78.615	5,463.87	66.0888	5,463.87	78.8038
5,656.49	82.4512	5,656.49	79.0271	5,656.49	66.2309	5,656.49	77.6797
5,856.45	83.0431	5,856.45	79.403	5,856.45	65.2845	5,856.45	78.1409
6,062.99	83.5847	6,062.99	79.1311	6,062.99	64.707	6,062.99	78.3689
6,276.86	84.2022	6,276.86	79.8154	6,276.86	64.5378	6,276.86	78.9923
6,498.05	84.5376	6,498.05	80.1999	6,498.05	64.6377	6,498.05	79.34
6,727.29	84.7902	6,727.29	80.3542	6,727.29	64.7301	6,727.29	79.5567
6,964.6	84.617	6,964.6	80.1672	6,964.6	65.079	6,964.6	79.3885
7,209.96	83.9889	7,209.96	79.8401	7,209.96	64.8253	7,209.96	78.8702
7,464.11	83.3609	7,464.11	79.2758	7,464.11	64.2326	7,464.11	78.2652
7,727.78	83.0047	7,727.78	78.781	7,727.78	63.1239	7,727.78	77.8463
8,000.24	83.2919	8,000.24	78.6164	8,000.24	62.2979	8,000.24	77.965
8,282.23	84.2512	8,282.23	79.2776	8,282.23	62.3723	8,282.23	78.8186
8,574.46	84.5968	8,574.46	79.5334	8,574.46	62.8066	8,574.46	79.1378
8,876.22	84.0665	8,876.22	78.9562	8,876.22	62.2089	8,876.22	78.5924
9,189.7	83.2448	9,189.7	78.0128	9,189.7	61.6077	9,189.7	77.7371
9,513.43	82.7975	9,513.43	77.369	9,513.43	60.6425	9,513.43	77.2261
9,848.88	83.0682	9,848.88	77.3775	9,848.88	59.8841	9,848.88	77.4124
10,196.8	83.4187	10,196.8	77.4567	10,196.8	60.0486	10,196.8	77.6881
10,556.4	83.5204	10,556.4	77.6204	10,556.4	60.6862	10,556.4	77.8114
10,928.5	83.2494	10,928.5	77.6865	10,928.5	60.9602	10,928.5	77.6383
11,313.7	82.5674	11,313.7	77.266	11,313.7	60.9622	11,313.7	77.0396
11,712.9	81.5641	11,712.9	76.6073	11,712.9	60.4911	11,712.9	76.1472
12,126	81.1894	12,126	76.7311	12,126	60.235	12,126	75.9344
12,553.7	81.4139	12,553.7	77.0986	12,553.7	60.8533	12,553.7	76.2129
12,996.1	81.2486	12,996.1	77.3096	12,996.1	60.9872	12,996.1	76.1841
13,454.6	80.7934	13,454.6	77.0018	13,454.6	61.2075	13,454.6	75.794
13,928.5	80.4435	13,928.5	76.3544	13,928.5	60.8156	13,928.5	75.3365
14,419.9	80.7301	14,419.9	75.9513	14,419.9	60.2169	14,419.9	75.3774
14,928.2	81.2295	14,928.2	75.692	14,928.2	59.5461	14,928.2	75.633
15,454.8	81.4528	15,454.8	75.2537	15,454.8	59.1889	15,454.8	75.6726
15,999.8	80.7809	15,999.8	74.1092	15,999.8	58.2399	15,999.8	74.8829
16,564.5	80.5286	16,564.5	73.4045	16,564.5	57.6037	16,564.5	74.5253
17,148.2	80.7552	17,148.2	72.5441	17,148.2	57.0862	17,148.2	74.5328
17,753.2	80.7311	17,753.2	71.4445	17,753.2	56.4292	17,753.2	74.3321
18,379.4	79.8776	18,379.4	69.5586	18,379.4	55.0585	18,379.4	73.341
19,027.6	79.5792	19,027.6	68.1363	19,027.6	54.0041	19,027.6	72.9203
19,698.5	79.5666	19,698.5	67.5102	19,698.5	53.5193	19,698.5	72.8516
19,999.5	79.275	19,999.5	67.2568	19,999.5	53.8144	19,999.5	72.5669
