"SPL Vertical"																																																																							
"On-Axis"		"10°"		"-10°"		"20°"		"-20°"		"30°"		"-30°"		"40°"		"-40°"		"50°"		"-50°"		"60°"		"-60°"		"70°"		"-70°"		"80°"		"-80°"		"90°"		"-90°"		"100°"		"-100°"		"110°"		"-110°"		"120°"		"-120°"		"130°"		"-130°"		"140°"		"-140°"		"150°"		"-150°"		"160°"		"-160°"		"170°"		"-170°"		"180°"	
"Frequency [Hz]"	"Sound Pessure Level [dB]  / [2.83V 1m] "	"Frequency [Hz]"	"Sound Pessure Level [dB]  / [2.83V 1m] "	"Frequency [Hz]"	"Sound Pessure Level [dB]  / [2.83V 1m] "	"Frequency [Hz]"	"Sound Pessure Level [dB]  / [2.83V 1m] "	"Frequency [Hz]"	"Sound Pessure Level [dB]  / [2.83V 1m] "	"Frequency [Hz]"	"Sound Pessure Level [dB]  / [2.83V 1m] "	"Frequency [Hz]"	"Sound Pessure Level [dB]  / [2.83V 1m] "	"Frequency [Hz]"	"Sound Pessure Level [dB]  / [2.83V 1m] "	"Frequency [Hz]"	"Sound Pessure Level [dB]  / [2.83V 1m] "	"Frequency [Hz]"	"Sound Pessure Level [dB]  / [2.83V 1m] "	"Frequency [Hz]"	"Sound Pessure Level [dB]  / [2.83V 1m] "	"Frequency [Hz]"	"Sound Pessure Level [dB]  / [2.83V 1m] "	"Frequency [Hz]"	"Sound Pessure Level [dB]  / [2.83V 1m] "	"Frequency [Hz]"	"Sound Pessure Level [dB]  / [2.83V 1m] "	"Frequency [Hz]"	"Sound Pessure Level [dB]  / [2.83V 1m] "	"Frequency [Hz]"	"Sound Pessure Level [dB]  / [2.83V 1m] "	"Frequency [Hz]"	"Sound Pessure Level [dB]  / [2.83V 1m] "	"Frequency [Hz]"	"Sound Pessure Level [dB]  / [2.83V 1m] "	"Frequency [Hz]"	"Sound Pessure Level [dB]  / [2.83V 1m] "	"Frequency [Hz]"	"Sound Pessure Level [dB]  / [2.83V 1m] "	"Frequency [Hz]"	"Sound Pessure Level [dB]  / [2.83V 1m] "	"Frequency [Hz]"	"Sound Pessure Level [dB]  / [2.83V 1m] "	"Frequency [Hz]"	"Sound Pessure Level [dB]  / [2.83V 1m] "	"Frequency [Hz]"	"Sound Pessure Level [dB]  / [2.83V 1m] "	"Frequency [Hz]"	"Sound Pessure Level [dB]  / [2.83V 1m] "	"Frequency [Hz]"	"Sound Pessure Level [dB]  / [2.83V 1m] "	"Frequency [Hz]"	"Sound Pessure Level [dB]  / [2.83V 1m] "	"Frequency [Hz]"	"Sound Pessure Level [dB]  / [2.83V 1m] "	"Frequency [Hz]"	"Sound Pessure Level [dB]  / [2.83V 1m] "	"Frequency [Hz]"	"Sound Pessure Level [dB]  / [2.83V 1m] "	"Frequency [Hz]"	"Sound Pessure Level [dB]  / [2.83V 1m] "	"Frequency [Hz]"	"Sound Pessure Level [dB]  / [2.83V 1m] "	"Frequency [Hz]"	"Sound Pessure Level [dB]  / [2.83V 1m] "	"Frequency [Hz]"	"Sound Pessure Level [dB]  / [2.83V 1m] "	"Frequency [Hz]"	"Sound Pessure Level [dB]  / [2.83V 1m] "	"Frequency [Hz]"	"Sound Pessure Level [dB]  / [2.83V 1m] "
20.5078	57.5374	20.5078	57.1659	20.5078	57.8367	20.5078	56.8073	20.5078	58.0145	20.5078	56.5904	20.5078	58.0454	20.5078	56.6668	20.5078	57.9248	20.5078	57.1402	20.5078	57.678	20.5078	57.9954	20.5078	57.3878	20.5078	59.1127	20.5078	57.232	20.5078	60.349	20.5078	57.4721	20.5078	61.5944	20.5078	58.2919	20.5078	62.7812	20.5078	59.607	20.5078	63.8712	20.5078	61.1463	20.5078	64.8425	20.5078	62.6675	20.5078	65.6802	20.5078	64.033	20.5078	66.3721	20.5078	65.1824	20.5078	66.9065	20.5078	66.0957	20.5078	67.2709	20.5078	66.7711	20.5078	67.4526	20.5078	67.2152	20.5078	67.4383
21.2402	58.4755	21.2402	58.0778	21.2402	58.8014	21.2402	57.6937	21.2402	59.0064	21.2402	57.453	21.2402	59.0647	21.2402	57.5098	21.2402	58.9695	21.2402	57.9699	21.2402	58.7401	21.2402	58.8173	21.2402	58.4452	21.2402	59.9295	21.2402	58.2397	21.2402	61.1606	21.2402	58.3707	21.2402	62.3995	21.2402	59.0512	21.2402	63.578	21.2402	60.2552	21.2402	64.6579	21.2402	61.7368	21.2402	65.6172	21.2402	63.2412	21.2402	66.4415	21.2402	64.6121	21.2402	67.1186	21.2402	65.777	21.2402	67.6368	21.2402	66.7097	21.2402	67.9839	21.2402	67.4057	21.2402	68.1472	21.2402	67.8704	21.2402	68.1136
21.9727	59.7955	21.9727	59.4471	21.9727	60.0836	21.9727	59.1133	21.9727	60.2661	21.9727	58.904	21.9727	60.3187	21.9727	58.9473	21.9727	60.2355	21.9727	59.3366	21.9727	60.0351	21.9727	60.0736	21.9727	59.7808	21.9727	61.0685	21.9727	59.6092	21.9727	62.1982	21.9727	59.732	21.9727	63.3585	21.9727	60.3369	21.9727	64.4791	21.9727	61.421	21.9727	65.5172	21.9727	62.7855	21.9727	66.4465	21.9727	64.1993	21.9727	67.2494	21.9727	65.5067	21.9727	67.9118	21.9727	66.6282	21.9727	68.4205	21.9727	67.5314	21.9727	68.7626	21.9727	68.2075	21.9727	68.925	21.9727	68.6592	21.9727	68.8947
22.7051	60.1865	22.7051	59.8638	22.7051	60.4582	22.7051	59.5692	22.7051	60.6298	22.7051	59.4143	22.7051	60.6751	22.7051	59.5217	22.7051	60.5875	22.7051	59.9712	22.7051	60.3873	22.7051	60.7497	22.7051	60.1418	22.7051	61.7632	22.7051	59.9936	22.7051	62.8938	22.7051	60.1576	22.7051	64.0445	22.7051	60.812	22.7051	65.1507	22.7051	61.9368	22.7051	66.173	22.7051	63.3248	22.7051	67.0868	22.7051	64.7493	22.7051	67.8751	22.7051	66.0607	22.7051	68.5241	22.7051	67.1843	22.7051	69.0208	22.7051	68.0897	22.7051	69.3523	22.7051	68.7691	22.7051	69.5054	22.7051	69.2255	22.7051	69.4673
23.4375	61.7043	23.4375	61.4487	23.4375	61.9264	23.4375	61.2224	23.4375	62.0738	23.4375	61.1102	23.4375	62.1244	23.4375	61.2028	23.4375	62.0742	23.4375	61.5644	23.4375	61.9431	23.4375	62.1995	23.4375	61.7886	23.4375	63.0511	23.4375	61.7214	23.4375	64.0325	23.4375	61.8975	23.4375	65.0608	23.4375	62.4494	23.4375	66.0726	23.4375	63.3829	23.4375	67.0242	23.4375	64.5644	23.4375	67.8861	23.4375	65.8167	23.4375	68.6369	23.4375	67.0014	23.4375	69.2595	23.4375	68.0366	23.4375	69.7389	23.4375	68.8819	23.4375	70.061	23.4375	69.5214	23.4375	70.2121	23.4375	69.9524	23.4375	70.1797
24.1699	62.5185	24.1699	62.2745	24.1699	62.7286	24.1699	62.0545	24.1699	62.8669	24.1699	61.9362	24.1699	62.913	24.1699	62.0045	24.1699	62.8632	24.1699	62.323	24.1699	62.7367	24.1699	62.9039	24.1699	62.5876	24.1699	63.7011	24.1699	62.5193	24.1699	64.636	24.1699	62.6775	24.1699	65.6284	24.1699	63.1897	24.1699	66.6142	24.1699	64.0695	24.1699	67.5477	24.1699	65.1982	24.1699	68.3973	24.1699	66.4076	24.1699	69.14	24.1699	67.561	24.1699	69.7576	24.1699	68.5741	24.1699	70.2344	24.1699	69.404	24.1699	70.5558	24.1699	70.0327	24.1699	70.7081	24.1699	70.4562	24.1699	70.6785
25.6348	64.1379	25.6348	63.9531	25.6348	64.3074	25.6348	63.801	25.6348	64.4285	25.6348	63.7427	25.6348	64.4834	25.6348	63.8415	25.6348	64.4704	25.6348	64.1437	25.6348	64.408	25.6348	64.6592	25.6348	64.3433	25.6348	65.3577	25.6348	64.3586	25.6348	66.182	25.6348	64.5616	25.6348	67.0687	25.6348	65.0424	25.6348	67.9625	25.6348	65.8138	25.6348	68.8202	25.6348	66.7954	25.6348	69.6093	25.6348	67.8609	25.6348	70.3053	25.6348	68.8948	25.6348	70.888	25.6348	69.8174	25.6348	71.3404	25.6348	70.5823	25.6348	71.647	25.6348	71.1664	25.6348	71.7938	25.6348	71.5616	25.6348	71.7686
26.3672	65.0194	26.3672	64.8569	26.3672	65.1716	26.3672	64.7263	26.3672	65.2839	26.3672	64.6802	26.3672	65.3404	26.3672	64.7729	26.3672	65.3395	26.3672	65.0453	26.3672	65.298	26.3672	65.5095	26.3672	65.2575	26.3672	66.1434	26.3672	65.2891	26.3672	66.9007	26.3672	65.485	26.3672	67.7257	26.3672	65.9241	26.3672	68.5669	26.3672	66.6236	26.3672	69.382	26.3672	67.5215	26.3672	70.1378	26.3672	68.5093	26.3672	70.8083	26.3672	69.4805	26.3672	71.3724	26.3672	70.3562	26.3672	71.8117	26.3672	71.088	26.3672	72.1103	26.3672	71.6497	26.3672	72.254	26.3672	72.031	26.3672	72.2306
27.0996	65.843	27.0996	65.6987	27.0996	65.981	27.0996	65.5854	27.0996	66.0864	27.0996	65.5489	27.0996	66.145	27.0996	65.6364	27.0996	66.1556	27.0996	65.8844	27.0996	66.1339	27.0996	66.3059	27.0996	66.1172	27.0996	66.8855	27.0996	66.1675	27.0996	67.5848	27.0996	66.3641	27.0996	68.3554	27.0996	66.775	27.0996	69.1494	27.0996	67.4185	27.0996	69.9257	27.0996	68.2454	27.0996	70.651	27.0996	69.1627	27.0996	71.2983	27.0996	70.0735	27.0996	71.8456	27.0996	70.902	27.0996	72.2739	27.0996	71.5986	27.0996	72.5665	27.0996	72.1355	27.0996	72.7092	27.0996	72.5002	27.0996	72.69
27.832	66.5881	27.832	66.4626	27.832	66.7111	27.832	66.3677	27.832	66.8079	27.832	66.3436	27.832	66.8659	27.832	66.4313	27.832	66.884	27.832	66.6629	27.832	66.8769	27.832	67.0513	27.832	66.8782	27.832	67.5855	27.832	66.9426	27.832	68.234	27.832	67.1391	27.832	68.9545	27.832	67.5274	27.832	69.7033	27.832	68.1255	27.832	70.4413	27.832	68.8937	27.832	71.1354	27.832	69.7512	27.832	71.7583	27.832	70.6096	27.832	72.2872	27.832	71.3964	27.832	72.7025	27.832	72.0619	27.832	72.9873	27.832	72.5771	27.832	73.127	27.832	72.9277	27.832	73.1099
29.2969	68.0344	29.2969	67.9341	29.2969	68.1383	29.2969	67.8637	29.2969	68.2273	29.2969	67.8541	29.2969	68.2912	29.2969	67.9367	29.2969	68.3297	29.2969	68.1369	29.2969	68.3552	29.2969	68.4669	29.2969	68.3942	29.2969	68.9217	29.2969	68.489	29.2969	69.48	29.2969	68.6904	29.2969	70.1099	29.2969	69.0429	29.2969	70.7754	29.2969	69.5619	29.2969	71.4414	29.2969	70.2217	29.2969	72.0765	29.2969	70.9629	29.2969	72.6533	29.2969	71.7141	29.2969	73.1483	29.2969	72.4113	29.2969	73.5411	29.2969	73.007	29.2969	73.8141	29.2969	73.4706	29.2969	73.9528	29.2969	73.7854	29.2969	73.9456
30.0293	68.5286	30.0293	68.4356	30.0293	68.6273	30.0293	68.3724	30.0293	68.7144	30.0293	68.3673	30.0293	68.7802	30.0293	68.449	30.0293	68.8248	30.0293	68.6406	30.0293	68.8592	30.0293	68.9537	30.0293	68.9082	30.0293	69.3845	30.0293	69.0099	30.0293	69.9146	30.0293	69.2106	30.0293	70.5152	30.0293	69.5507	30.0293	71.1526	30.0293	70.0451	30.0293	71.7937	30.0293	70.6715	30.0293	72.4079	30.0293	71.3764	30.0293	72.968	30.0293	72.0936	30.0293	73.4505	30.0293	72.7619	30.0293	73.8348	30.0293	73.3346	30.0293	74.1032	30.0293	73.7811	30.0293	74.241	30.0293	74.084	30.0293	74.237
31.4941	69.7692	31.4941	69.6916	31.4941	69.8566	31.4941	69.6423	31.4941	69.9401	31.4941	69.6431	31.4941	70.0123	31.4941	69.7162	31.4941	70.0734	31.4941	69.8803	31.4941	70.1323	31.4941	70.1457	31.4941	70.208	31.4941	70.5121	31.4941	70.329	31.4941	70.9674	31.4941	70.5292	31.4941	71.4904	31.4941	70.838	31.4941	72.0539	31.4941	71.2678	31.4941	72.6291	31.4941	71.8043	31.4941	73.1876	31.4941	72.4088	31.4941	73.7033	31.4941	73.0293	31.4941	74.1524	31.4941	73.6135	31.4941	74.5142	31.4941	74.1187	31.4941	74.7706	31.4941	74.5142	31.4941	74.9071	31.4941	74.7817	31.4941	74.9127
32.2266	70.2487	32.2266	70.1785	32.2266	70.3308	32.2266	70.1373	32.2266	70.4125	32.2266	70.1448	32.2266	70.4867	32.2266	70.2209	32.2266	70.5536	32.2266	70.3822	32.2266	70.6211	32.2266	70.6382	32.2266	70.706	32.2266	70.9887	32.2266	70.834	32.2266	71.423	32.2266	71.0348	32.2266	71.9221	32.2266	71.3349	32.2266	72.461	32.2266	71.7456	32.2266	73.0126	32.2266	72.255	32.2266	73.5501	32.2266	72.8285	32.2266	74.0478	32.2266	73.4186	32.2266	74.4826	32.2266	73.9764	32.2266	74.8336	32.2266	74.4603	32.2266	75.0831	32.2266	74.8403	32.2266	75.2165	32.2266	75.0975	32.2266	75.2231
33.6914	71.2713	33.6914	71.2193	33.6914	71.3386	33.6914	71.196	33.6914	71.4111	33.6914	71.217	33.6914	71.4833	33.6914	71.2977	33.6914	71.5553	33.6914	71.4512	33.6914	71.6338	33.6914	71.6851	33.6914	71.7323	33.6914	72	33.6914	71.871	33.6914	72.3882	33.6914	72.0731	33.6914	72.835	33.6914	72.3588	33.6914	73.3202	33.6914	72.7368	33.6914	73.8206	33.6914	73.1975	33.6914	74.3121	33.6914	73.7133	33.6914	74.7709	33.6914	74.2443	33.6914	75.1746	33.6914	74.748	33.6914	75.5031	33.6914	75.1869	33.6914	75.7387	33.6914	75.5323	33.6914	75.8669	33.6914	75.7655	33.6914	75.8775
34.4238	71.9108	34.4238	71.8633	34.4238	71.9746	34.4238	71.8437	34.4238	72.0458	34.4238	71.8655	34.4238	72.12	34.4238	71.942	34.4238	72.1972	34.4238	72.0847	34.4238	72.2833	34.4238	72.3008	34.4238	72.39	34.4238	72.5913	34.4238	72.5345	34.4238	72.9503	34.4238	72.7363	34.4238	73.3652	34.4238	73.0123	34.4238	73.8185	34.4238	73.3694	34.4238	74.2891	34.4238	73.7993	34.4238	74.7544	34.4238	74.2778	34.4238	75.1917	34.4238	74.7696	34.4238	75.5793	34.4238	75.2363	34.4238	75.8971	34.4238	75.6428	34.4238	76.1276	34.4238	75.9619	34.4238	76.2567	34.4238	76.1755	34.4238	76.2743
35.8887	72.9501	35.8887	72.899	35.8887	73.0174	35.8887	72.8738	35.8887	73.0938	35.8887	72.8853	35.8887	73.1753	35.8887	72.9447	35.8887	73.2616	35.8887	73.0617	35.8887	73.3566	35.8887	73.2429	35.8887	73.469	35.8887	73.4902	35.8887	73.6114	35.8887	73.8002	35.8887	73.7987	35.8887	74.1633	35.8887	74.0438	35.8887	74.5653	35.8887	74.3531	35.8887	74.988	35.8887	74.7216	35.8887	75.4112	35.8887	75.1315	35.8887	75.8136	35.8887	75.5546	35.8887	76.1743	35.8887	75.9585	35.8887	76.4738	35.8887	76.3118	35.8887	76.695	35.8887	76.5889	35.8887	76.824	35.8887	76.7719	35.8887	76.851
37.3535	73.7264	37.3535	73.6788	37.3535	73.7909	37.3535	73.6561	37.3535	73.8665	37.3535	73.6672	37.3535	73.9495	37.3535	73.7214	37.3535	74.0395	37.3535	73.8267	37.3535	74.1395	37.3535	73.9889	37.3535	74.2559	37.3535	74.2101	37.3535	74.3985	37.3535	74.4878	37.3535	74.5788	37.3535	74.8147	37.3535	74.8072	37.3535	75.1789	37.3535	75.0889	37.3535	75.5648	37.3535	75.42	37.3535	75.9542	37.3535	75.7863	37.3535	76.3275	37.3535	76.1642	37.3535	76.6649	37.3535	76.5255	37.3535	76.9476	37.3535	76.8419	37.3535	77.1589	37.3535	77.0896	37.3535	77.2853	37.3535	77.2513	37.3535	77.3174
38.8184	74.4003	38.8184	74.3592	38.8184	74.4597	38.8184	74.3429	38.8184	74.5324	38.8184	74.3586	38.8184	74.6154	38.8184	74.4139	38.8184	74.7082	38.8184	74.5153	38.8184	74.8128	38.8184	74.6676	38.8184	74.9342	38.8184	74.8725	38.8184	75.0802	38.8184	75.1282	38.8184	75.2595	38.8184	75.4288	38.8184	75.4801	38.8184	75.7641	38.8184	75.7457	38.8184	76.1207	38.8184	76.0529	38.8184	76.4822	38.8184	76.3893	38.8184	76.8308	38.8184	76.7346	38.8184	77.1479	38.8184	77.0638	38.8184	77.4155	38.8184	77.3517	38.8184	77.6176	38.8184	77.5761	38.8184	77.741	38.8184	77.7209	38.8184	77.7767
39.5508	74.8254	39.5508	74.7852	39.5508	74.8847	39.5508	74.7698	39.5508	74.9585	39.5508	74.7857	39.5508	75.0442	39.5508	74.8394	39.5508	75.1409	39.5508	74.9367	39.5508	75.2504	39.5508	75.0819	39.5508	75.3767	39.5508	75.2765	39.5508	75.5261	39.5508	75.519	39.5508	75.7058	39.5508	75.804	39.5508	75.9222	39.5508	76.1225	39.5508	76.1781	39.5508	76.4621	39.5508	76.4701	39.5508	76.8077	39.5508	76.7869	39.5508	77.1423	39.5508	77.1102	39.5508	77.4481	39.5508	77.4173	39.5508	77.708	39.5508	77.6847	39.5508	77.9061	39.5508	77.8917	39.5508	78.0297	39.5508	78.0231	39.5508	78.0699
41.0156	75.598	41.0156	75.5545	41.0156	75.6602	41.0156	75.5343	41.0156	75.7372	41.0156	75.5428	41.0156	75.8265	41.0156	75.5853	41.0156	75.9271	41.0156	75.6666	41.0156	76.0397	41.0156	75.7904	41.0156	76.1667	41.0156	75.9585	41.0156	76.3122	41.0156	76.1701	41.0156	76.4813	41.0156	76.4212	41.0156	76.6785	41.0156	76.7046	41.0156	76.9059	41.0156	77.01	41.0156	77.1611	41.0156	77.3239	41.0156	77.4352	41.0156	77.6311	41.0156	77.7137	41.0156	77.9152	41.0156	77.9775	41.0156	78.1597	41.0156	78.2062	41.0156	78.3495	41.0156	78.3815	41.0156	78.4725	41.0156	78.4889	41.0156	78.5201
42.4805	76.1535	42.4805	76.1154	42.4805	76.2099	42.4805	76.0996	42.4805	76.2813	42.4805	76.1104	42.4805	76.3653	42.4805	76.1523	42.4805	76.4608	42.4805	76.2292	42.4805	76.568	42.4805	76.3444	42.4805	76.6886	42.4805	76.4993	42.4805	76.8257	42.4805	76.6934	42.4805	76.9833	42.4805	76.9236	42.4805	77.1653	42.4805	77.1837	42.4805	77.374	42.4805	77.4646	42.4805	77.6074	42.4805	77.7543	42.4805	77.8585	42.4805	78.0388	42.4805	78.1144	42.4805	78.3027	42.4805	78.3579	42.4805	78.5302	42.4805	78.5703	42.4805	78.707	42.4805	78.734	42.4805	78.8214	42.4805	78.8351	42.4805	78.8651
43.9453	76.7966	43.9453	76.7569	43.9453	76.8552	43.9453	76.7394	43.9453	76.9301	43.9453	76.7475	43.9453	77.0191	43.9453	76.7848	43.9453	77.121	43.9453	76.8548	43.9453	77.2357	43.9453	76.9599	43.9453	77.3637	43.9453	77.1015	43.9453	77.5068	43.9453	77.2795	43.9453	77.6672	43.9453	77.4912	43.9453	77.8471	43.9453	77.7316	43.9453	78.047	43.9453	77.9926	43.9453	78.2648	43.9453	78.2639	43.9453	78.4936	43.9453	78.5324	43.9453	78.7226	43.9453	78.7841	43.9453	78.937	43.9453	79.0042	43.9453	79.1207	43.9453	79.1792	43.9453	79.2582	43.9453	79.2975	43.9453	79.3376	43.9453	79.3514
45.4102	77.4234	45.4102	77.3844	45.4102	77.4814	45.4102	77.3671	45.4102	77.5561	45.4102	77.3744	45.4102	77.6455	45.4102	77.4092	45.4102	77.7482	45.4102	77.474	45.4102	77.8633	45.4102	77.5709	45.4102	77.9908	45.4102	77.701	45.4102	78.1314	45.4102	77.8641	45.4102	78.2861	45.4102	78.0579	45.4102	78.4563	45.4102	78.2783	45.4102	78.6419	45.4102	78.5182	45.4102	78.8409	45.4102	78.7686	45.4102	79.0477	45.4102	79.0177	45.4102	79.2528	45.4102	79.2527	45.4102	79.4436	45.4102	79.4599	45.4102	79.6057	45.4102	79.6264	45.4102	79.7254	45.4102	79.7416	45.4102	79.7917	45.4102	79.7977
47.6074	78.3107	47.6074	78.2727	47.6074	78.3678	47.6074	78.2558	47.6074	78.4423	47.6074	78.2619	47.6074	78.5325	47.6074	78.2927	47.6074	78.6368	47.6074	78.3502	47.6074	78.7538	47.6074	78.4355	47.6074	78.8825	47.6074	78.5494	47.6074	79.0222	47.6074	78.6919	47.6074	79.1727	47.6074	78.8614	47.6074	79.3335	47.6074	79.0547	47.6074	79.5039	47.6074	79.2664	47.6074	79.6813	47.6074	79.4891	47.6074	79.861	47.6074	79.713	47.6074	80.0352	47.6074	79.927	47.6074	80.1938	47.6074	80.1189	47.6074	80.325	47.6074	80.277	47.6074	80.4177	47.6074	80.3911	47.6074	80.4625	47.6074	80.4541
49.0723	78.832	49.0723	78.7924	49.0723	78.8904	49.0723	78.7731	49.0723	78.9661	49.0723	78.7756	49.0723	79.0574	49.0723	78.8014	49.0723	79.1626	49.0723	78.8516	49.0723	79.28	49.0723	78.9275	49.0723	79.408	49.0723	79.0296	49.0723	79.5451	49.0723	79.1579	49.0723	79.6903	49.0723	79.3112	49.0723	79.8426	49.0723	79.4869	49.0723	80.0004	49.0723	79.6806	49.0723	80.1616	49.0723	79.8857	49.0723	80.3218	49.0723	80.0937	49.0723	80.4746	49.0723	80.2944	49.0723	80.6114	49.0723	80.4766	49.0723	80.722	49.0723	80.6292	49.0723	80.7968	49.0723	80.7426	49.0723	80.8276	49.0723	80.8099
50.5371	79.328	50.5371	79.2874	50.5371	79.3875	50.5371	79.2669	50.5371	79.4644	50.5371	79.2676	50.5371	79.5573	50.5371	79.2904	50.5371	79.6642	50.5371	79.3362	50.5371	79.7832	50.5371	79.4059	50.5371	79.9121	50.5371	79.4999	50.5371	80.049	50.5371	79.6182	50.5371	80.1919	50.5371	79.7597	50.5371	80.3392	50.5371	79.9223	50.5371	80.489	50.5371	80.1023	50.5371	80.6388	50.5371	80.2939	50.5371	80.7848	50.5371	80.4896	50.5371	80.9213	50.5371	80.6799	50.5371	81.0408	50.5371	80.8545	50.5371	81.1348	50.5371	81.0031	50.5371	81.1948	50.5371	81.1165	50.5371	81.2138	50.5371	81.1878
52.7344	80.0707	52.7344	80.0309	52.7344	80.1292	52.7344	80.0105	52.7344	80.2052	52.7344	80.0101	52.7344	80.2973	52.7344	80.0301	52.7344	80.4035	52.7344	80.0708	52.7344	80.5214	52.7344	80.1326	52.7344	80.6484	52.7344	80.2157	52.7344	80.7817	52.7344	80.3197	52.7344	80.9186	52.7344	80.4441	52.7344	81.0566	52.7344	80.5872	52.7344	81.1934	52.7344	80.746	52.7344	81.3263	52.7344	80.9162	52.7344	81.452	52.7344	81.0913	52.7344	81.566	52.7344	81.2636	52.7344	81.6624	52.7344	81.4239	52.7344	81.7346	52.7344	81.563	52.7344	81.776	52.7344	81.6727	52.7344	81.7809	52.7344	81.7464
54.1992	80.558	54.1992	80.5188	54.1992	80.6154	54.1992	80.4984	54.1992	80.6901	54.1992	80.4969	54.1992	80.7807	54.1992	80.5146	54.1992	80.8851	54.1992	80.5514	54.1992	81.001	54.1992	80.6074	54.1992	81.1253	54.1992	80.6826	54.1992	81.2549	54.1992	80.7768	54.1992	81.3867	54.1992	80.8894	54.1992	81.5178	54.1992	81.0192	54.1992	81.6455	54.1992	81.1639	54.1992	81.7673	54.1992	81.3196	54.1992	81.88	54.1992	81.481	54.1992	81.9798	54.1992	81.6411	54.1992	82.0617	54.1992	81.7917	54.1992	82.1203	54.1992	81.9244	54.1992	82.1499	54.1992	82.0313	54.1992	82.146	54.1992	82.1063
56.3965	81.2613	56.3965	81.2206	56.3965	81.3201	56.3965	81.1982	56.3965	81.3963	56.3965	81.1941	56.3965	81.4885	56.3965	81.2078	56.3965	81.5947	56.3965	81.2392	56.3965	81.7119	56.3965	81.2877	56.3965	81.8368	56.3965	81.3533	56.3965	81.9657	56.3965	81.4356	56.3965	82.0946	56.3965	81.5343	56.3965	82.2202	56.3965	81.6485	56.3965	82.339	56.3965	81.7765	56.3965	82.4482	56.3965	81.9156	56.3965	82.545	56.3965	82.0617	56.3965	82.6261	56.3965	82.2089	56.3965	82.6878	56.3965	82.3503	56.3965	82.7261	56.3965	82.4784	56.3965	82.7371	56.3965	82.5859	56.3965	82.7177	56.3965	82.6669
