"SPL Vertical"																																																																							
"On-Axis"		"10°"		"-10°"		"20°"		"-20°"		"30°"		"-30°"		"40°"		"-40°"		"50°"		"-50°"		"60°"		"-60°"		"70°"		"-70°"		"80°"		"-80°"		"90°"		"-90°"		"100°"		"-100°"		"110°"		"-110°"		"120°"		"-120°"		"130°"		"-130°"		"140°"		"-140°"		"150°"		"-150°"		"160°"		"-160°"		"170°"		"-170°"		"180°"	
"Frequency [Hz]"	"Sound Pessure Level [dB]  / [2.83V 1m] "	"Frequency [Hz]"	"Sound Pessure Level [dB]  / [2.83V 1m] "	"Frequency [Hz]"	"Sound Pessure Level [dB]  / [2.83V 1m] "	"Frequency [Hz]"	"Sound Pessure Level [dB]  / [2.83V 1m] "	"Frequency [Hz]"	"Sound Pessure Level [dB]  / [2.83V 1m] "	"Frequency [Hz]"	"Sound Pessure Level [dB]  / [2.83V 1m] "	"Frequency [Hz]"	"Sound Pessure Level [dB]  / [2.83V 1m] "	"Frequency [Hz]"	"Sound Pessure Level [dB]  / [2.83V 1m] "	"Frequency [Hz]"	"Sound Pessure Level [dB]  / [2.83V 1m] "	"Frequency [Hz]"	"Sound Pessure Level [dB]  / [2.83V 1m] "	"Frequency [Hz]"	"Sound Pessure Level [dB]  / [2.83V 1m] "	"Frequency [Hz]"	"Sound Pessure Level [dB]  / [2.83V 1m] "	"Frequency [Hz]"	"Sound Pessure Level [dB]  / [2.83V 1m] "	"Frequency [Hz]"	"Sound Pessure Level [dB]  / [2.83V 1m] "	"Frequency [Hz]"	"Sound Pessure Level [dB]  / [2.83V 1m] "	"Frequency [Hz]"	"Sound Pessure Level [dB]  / [2.83V 1m] "	"Frequency [Hz]"	"Sound Pessure Level [dB]  / [2.83V 1m] "	"Frequency [Hz]"	"Sound Pessure Level [dB]  / [2.83V 1m] "	"Frequency [Hz]"	"Sound Pessure Level [dB]  / [2.83V 1m] "	"Frequency [Hz]"	"Sound Pessure Level [dB]  / [2.83V 1m] "	"Frequency [Hz]"	"Sound Pessure Level [dB]  / [2.83V 1m] "	"Frequency [Hz]"	"Sound Pessure Level [dB]  / [2.83V 1m] "	"Frequency [Hz]"	"Sound Pessure Level [dB]  / [2.83V 1m] "	"Frequency [Hz]"	"Sound Pessure Level [dB]  / [2.83V 1m] "	"Frequency [Hz]"	"Sound Pessure Level [dB]  / [2.83V 1m] "	"Frequency [Hz]"	"Sound Pessure Level [dB]  / [2.83V 1m] "	"Frequency [Hz]"	"Sound Pessure Level [dB]  / [2.83V 1m] "	"Frequency [Hz]"	"Sound Pessure Level [dB]  / [2.83V 1m] "	"Frequency [Hz]"	"Sound Pessure Level [dB]  / [2.83V 1m] "	"Frequency [Hz]"	"Sound Pessure Level [dB]  / [2.83V 1m] "	"Frequency [Hz]"	"Sound Pessure Level [dB]  / [2.83V 1m] "	"Frequency [Hz]"	"Sound Pessure Level [dB]  / [2.83V 1m] "	"Frequency [Hz]"	"Sound Pessure Level [dB]  / [2.83V 1m] "	"Frequency [Hz]"	"Sound Pessure Level [dB]  / [2.83V 1m] "	"Frequency [Hz]"	"Sound Pessure Level [dB]  / [2.83V 1m] "	"Frequency [Hz]"	"Sound Pessure Level [dB]  / [2.83V 1m] "
20.5078	41.6541	20.5078	41.2647	20.5078	41.9021	20.5078	40.7717	20.5078	41.9896	20.5078	40.2475	20.5078	41.9085	20.5078	39.8186	20.5078	41.6622	20.5078	39.6621	20.5078	41.2762	20.5078	39.9353	20.5078	40.8212	20.5078	40.662	20.5078	40.4486	20.5078	41.7124	20.5078	40.3938	20.5078	42.9058	20.5078	40.862	20.5078	44.1012	20.5078	41.8411	20.5078	45.2152	20.5078	43.1096	20.5078	46.2045	20.5078	44.4267	20.5078	47.0475	20.5078	45.6396	20.5078	47.7327	20.5078	46.6755	20.5078	48.2524	20.5078	47.5067	20.5078	48.5999	20.5078	48.1272	20.5078	48.7685	20.5078	48.5398	20.5078	48.751
21.2402	43.2591	21.2402	42.7593	21.2402	43.5683	21.2402	42.0731	21.2402	43.6844	21.2402	41.2174	21.2402	43.6021	21.2402	40.2494	21.2402	43.3142	21.2402	39.323	21.2402	42.816	21.2402	38.7464	21.2402	42.1195	21.2402	38.8796	21.2402	41.2893	21.2402	39.7863	21.2402	40.5132	21.2402	41.1529	21.2402	40.1562	21.2402	42.6284	21.2402	40.573	21.2402	44.0139	21.2402	41.7042	21.2402	45.2284	21.2402	43.1474	21.2402	46.2457	21.2402	44.5628	21.2402	47.0592	21.2402	45.7889	21.2402	47.6678	21.2402	46.7717	21.2402	48.0697	21.2402	47.5023	21.2402	48.2614	21.2402	47.9871	21.2402	48.2367
21.9727	41.3801	21.9727	40.743	21.9727	41.7816	21.9727	39.8981	21.9727	41.9387	21.9727	38.9357	21.9727	41.8454	21.9727	38.0984	21.9727	41.4971	21.9727	37.8326	21.9727	40.9039	21.9727	38.4997	21.9727	40.1307	21.9727	39.9263	21.9727	39.3912	21.9727	41.6428	21.9727	39.1419	21.9727	43.3276	21.9727	39.834	21.9727	44.85	21.9727	41.3423	21.9727	46.1734	21.9727	43.1417	21.9727	47.2946	21.9727	44.8589	21.9727	48.2188	21.9727	46.3462	21.9727	48.9511	21.9727	47.5675	21.9727	49.4937	21.9727	48.5255	21.9727	49.8459	21.9727	49.234	21.9727	50.0037	21.9727	49.7079	21.9727	49.9607
22.7051	42.3374	22.7051	41.7927	22.7051	42.6882	22.7051	41.0973	22.7051	42.8261	22.7051	40.3545	22.7051	42.7407	22.7051	39.7774	22.7051	42.4286	22.7051	39.681	22.7051	41.904	22.7051	40.2813	22.7051	41.2338	22.7051	41.4664	22.7051	40.6092	22.7051	42.9267	22.7051	40.4049	22.7051	44.4109	22.7051	40.9896	22.7051	45.7897	22.7051	42.3061	22.7051	47.0113	22.7051	43.943	22.7051	48.059	22.7051	45.5552	22.7051	48.929	22.7051	46.981	22.7051	49.6203	22.7051	48.1679	22.7051	50.1316	22.7051	49.1083	22.7051	50.4599	22.7051	49.81	22.7051	50.5999	22.7051	50.2847	22.7051	50.5445
23.4375	43.3898	23.4375	43.0411	23.4375	43.6253	23.4375	42.6451	23.4375	43.7139	23.4375	42.3151	23.4375	43.6436	23.4375	42.2099	23.4375	43.4249	23.4375	42.4809	23.4375	43.1046	23.4375	43.1745	23.4375	42.7927	23.4375	44.1964	23.4375	42.685	23.4375	45.3867	23.4375	43.009	23.4375	46.6072	23.4375	43.8579	23.4375	47.7701	23.4375	45.0943	23.4375	48.8278	23.4375	46.479	23.4375	49.756	23.4375	47.824	23.4375	50.5417	23.4375	49.0263	23.4375	51.177	23.4375	50.0408	23.4375	51.6556	23.4375	50.8527	23.4375	51.971	23.4375	51.4606	23.4375	52.1167	23.4375	51.8691	23.4375	52.0853
24.1699	44.8675	24.1699	44.5551	24.1699	45.0766	24.1699	44.1911	24.1699	45.1554	24.1699	43.8627	24.1699	45.0948	24.1699	43.6947	24.1699	44.9049	24.1699	43.8201	24.1699	44.6257	24.1699	44.3125	24.1699	44.3468	24.1699	45.1345	24.1699	44.2235	24.1699	46.1667	24.1699	44.4427	24.1699	47.279	24.1699	45.1084	24.1699	48.374	24.1699	46.1473	24.1699	49.3914	24.1699	47.3709	24.1699	50.2972	24.1699	48.6017	24.1699	51.072	24.1699	49.7268	24.1699	51.7037	24.1699	50.6893	24.1699	52.1836	24.1699	51.4649	24.1699	52.5041	24.1699	52.0468	24.1699	52.6579	24.1699	52.4361	24.1699	52.6376
25.6348	46.4308	25.6348	46.1728	25.6348	46.6176	25.6348	45.8967	25.6348	46.7052	25.6348	45.6848	25.6348	46.6865	25.6348	45.6433	25.6348	46.5763	25.6348	45.8704	25.6348	46.4194	25.6348	46.4064	25.6348	46.302	25.6348	47.2088	25.6348	46.351	25.6348	48.1797	25.6348	46.6948	25.6348	49.2157	25.6348	47.3848	25.6348	50.2367	25.6348	48.3535	25.6348	51.1901	25.6348	49.461	25.6348	52.0437	25.6348	50.5731	25.6348	52.7778	25.6348	51.597	25.6348	53.3793	25.6348	52.4802	25.6348	53.8386	25.6348	53.197	25.6348	54.1473	25.6348	53.7371	25.6348	54.298	25.6348	54.0985	25.6348	54.2838
26.3672	47.5945	26.3672	47.3944	26.3672	47.7505	26.3672	47.1982	26.3672	47.8359	26.3672	47.0758	26.3672	47.8438	26.3672	47.1091	26.3672	47.789	26.3672	47.368	26.3672	47.7127	26.3672	47.8774	26.3672	47.688	26.3672	48.6043	26.3672	47.8138	26.3672	49.4755	26.3672	48.1826	26.3672	50.4102	26.3672	48.8284	26.3672	51.341	26.3672	49.7007	26.3672	52.2198	26.3672	50.694	26.3672	53.0143	26.3672	51.6998	26.3672	53.7032	26.3672	52.6364	26.3672	54.2714	26.3672	53.4524	26.3672	54.7076	26.3672	54.1199	26.3672	55.0025	26.3672	54.6253	26.3672	55.148	26.3672	54.9641	26.3672	55.1371
27.0996	48.5776	27.0996	48.3979	27.0996	48.7235	27.0996	48.2271	27.0996	48.811	27.0996	48.1252	27.0996	48.8334	27.0996	48.1614	27.0996	48.8024	27.0996	48.3945	27.0996	48.7528	27.0996	48.8485	27.0996	48.7452	27.0996	49.5002	27.0996	48.862	27.0996	50.2911	27.0996	49.1828	27.0996	51.1514	27.0996	49.7446	27.0996	52.0191	27.0996	50.5164	27.0996	52.8468	27.0996	51.4144	27.0996	53.6011	27.0996	52.3424	27.0996	54.2588	27.0996	53.2212	27.0996	54.8033	27.0996	53.9969	27.0996	55.2219	27.0996	54.6377	27.0996	55.5043	27.0996	55.1269	27.0996	55.6421	27.0996	55.4574	27.0996	55.6282
27.832	49.5678	27.832	49.4372	27.832	49.6802	27.832	49.3261	27.832	49.7522	27.832	49.2847	27.832	49.7778	27.832	49.3678	27.832	49.7684	27.832	49.6198	27.832	49.756	27.832	50.0574	27.832	49.7944	27.832	50.6621	27.832	49.9525	27.832	51.3879	27.832	50.2934	27.832	52.1783	27.832	50.8433	27.832	52.9805	27.832	51.5738	27.832	53.7517	27.832	52.4143	27.832	54.4596	27.832	53.2823	27.832	55.0809	27.832	54.1071	27.832	55.5979	27.832	54.8387	27.832	55.997	27.832	55.4455	27.832	56.2672	27.832	55.9102	27.832	56.3996	27.832	56.2247	27.832	56.3871
29.2969	51.9858	29.2969	51.8863	29.2969	52.0774	29.2969	51.8073	29.2969	52.1438	29.2969	51.7859	29.2969	52.1801	29.2969	51.8622	29.2969	52.1954	29.2969	52.0695	29.2969	52.2138	29.2969	52.4235	29.2969	52.2754	29.2969	52.9163	29.2969	52.43	29.2969	53.5187	29.2969	52.7242	29.2969	54.1893	29.2969	53.1808	29.2969	54.8849	29.2969	53.7855	29.2969	55.5666	29.2969	54.4907	29.2969	56.2029	29.2969	55.2329	29.2969	56.7688	29.2969	55.9515	29.2969	57.245	29.2969	56.599	29.2969	57.6162	29.2969	57.1424	29.2969	57.8702	29.2969	57.5615	29.2969	57.9973	29.2969	57.8456	29.2969	57.9906
30.0293	53.2044	30.0293	53.1288	30.0293	53.2788	30.0293	53.0758	30.0293	53.3372	30.0293	53.076	30.0293	53.3753	30.0293	53.1616	30.0293	53.401	30.0293	53.3592	30.0293	53.4349	30.0293	53.6821	30.0293	53.5105	30.0293	54.1253	30.0293	53.6689	30.0293	54.6665	30.0293	53.9483	30.0293	55.2723	30.0293	54.3681	30.0293	55.906	30.0293	54.9178	30.0293	56.5328	30.0293	55.559	30.0293	57.1228	30.0293	56.2378	30.0293	57.6514	30.0293	56.9001	30.0293	58.0989	30.0293	57.5013	30.0293	58.4495	30.0293	58.0091	30.0293	58.6903	30.0293	58.4025	30.0293	58.8116	30.0293	58.6698	30.0293	58.8061
31.4941	55.637	31.4941	55.5795	31.4941	55.6967	31.4941	55.5418	31.4941	55.748	31.4941	55.5463	31.4941	55.7883	31.4941	55.6171	31.4941	55.8245	31.4941	55.7754	31.4941	55.8728	31.4941	56.0338	31.4941	55.9587	31.4941	56.3924	31.4941	56.1128	31.4941	56.8383	31.4941	56.363	31.4941	57.3482	31.4941	56.7243	31.4941	57.8931	31.4941	57.1906	31.4941	58.4431	31.4941	57.7343	31.4941	58.9701	31.4941	58.3141	31.4941	59.4498	31.4941	58.8855	31.4941	59.8619	31.4941	59.4089	31.4941	60.1893	31.4941	59.8537	31.4941	60.4187	31.4941	60.1987	31.4941	60.5397	31.4941	60.4312	31.4941	60.5451
32.2266	56.5929	32.2266	56.5317	32.2266	56.6556	32.2266	56.4884	32.2266	56.7101	32.2266	56.4838	32.2266	56.754	32.2266	56.5406	32.2266	56.7931	32.2266	56.679	32.2266	56.8425	32.2266	56.912	32.2266	56.925	32.2266	57.2414	32.2266	57.0687	32.2266	57.6567	32.2266	57.2997	32.2266	58.1368	32.2266	57.6331	32.2266	58.6549	32.2266	58.0651	32.2266	59.1819	32.2266	58.5721	32.2266	59.6904	32.2266	59.1166	32.2266	60.156	32.2266	59.6567	32.2266	60.5579	32.2266	60.1541	32.2266	60.879	32.2266	60.5783	32.2266	61.1054	32.2266	60.9077	32.2266	61.2267	32.2266	61.1291	32.2266	61.2357
33.6914	58.4625	33.6914	58.4043	33.6914	58.525	33.6914	58.3642	33.6914	58.5839	33.6914	58.3592	33.6914	58.6369	33.6914	58.4083	33.6914	58.6889	33.6914	58.5285	33.6914	58.7519	33.6914	58.7312	33.6914	58.8442	33.6914	59.0194	33.6914	58.9879	33.6914	59.3855	33.6914	59.2036	33.6914	59.8133	33.6914	59.5037	33.6914	60.2799	33.6914	59.8859	33.6914	60.76	33.6914	60.3324	33.6914	61.2281	33.6914	60.813	33.6914	61.661	33.6914	61.2922	33.6914	62.0382	33.6914	61.7358	33.6914	62.3427	33.6914	62.1156	33.6914	62.5605	33.6914	62.4104	33.6914	62.6811	33.6914	62.6068	33.6914	62.6976
34.4238	59.4904	34.4238	59.4433	34.4238	59.5454	34.4238	59.4158	34.4238	59.601	34.4238	59.423	34.4238	59.6556	34.4238	59.4809	34.4238	59.7135	34.4238	59.6041	34.4238	59.7853	34.4238	59.8022	34.4238	59.8871	34.4238	60.0776	34.4238	60.0378	34.4238	60.4238	34.4238	60.2547	34.4238	60.8267	34.4238	60.5477	34.4238	61.266	34.4238	60.9144	34.4238	61.719	34.4238	61.3384	34.4238	62.1621	34.4238	61.7925	34.4238	62.5734	34.4238	62.2447	34.4238	62.9331	34.4238	62.6634	34.4238	63.2246	34.4238	63.0219	34.4238	63.4342	34.4238	63.3003	34.4238	63.5514	34.4238	63.4851	34.4238	63.5694
35.8887	61.4796	35.8887	61.4332	35.8887	61.5341	35.8887	61.4043	35.8887	61.5908	35.8887	61.4052	35.8887	61.6479	35.8887	61.449	35.8887	61.7089	35.8887	61.5479	35.8887	61.7818	35.8887	61.7105	35.8887	61.8791	35.8887	61.9401	35.8887	62.0157	35.8887	62.2331	35.8887	62.2055	35.8887	62.5789	35.8887	62.4573	35.8887	62.9618	35.8887	62.7702	35.8887	63.362	35.8887	63.1326	35.8887	63.7588	35.8887	63.523	35.8887	64.1316	35.8887	63.9146	35.8887	64.4615	35.8887	64.2797	35.8887	64.732	35.8887	64.5938	35.8887	64.9295	35.8887	64.8376	35.8887	65.0435	35.8887	64.9979	35.8887	65.0671
37.3535	63.2408	37.3535	63.1932	37.3535	63.2967	37.3535	63.1619	37.3535	63.3558	37.3535	63.1571	37.3535	63.4168	37.3535	63.1898	37.3535	63.4821	37.3535	63.2705	37.3535	63.5581	37.3535	63.407	37.3535	63.6547	37.3535	63.603	37.3535	63.7837	37.3535	63.8565	37.3535	63.9563	37.3535	64.1595	37.3535	64.1797	37.3535	64.499	37.3535	64.4538	37.3535	64.8582	37.3535	64.7696	37.3535	65.2184	37.3535	65.1099	37.3535	65.5606	37.3535	65.4521	37.3535	65.8668	37.3535	65.772	37.3535	66.1209	37.3535	66.0475	37.3535	66.3094	37.3535	66.2603	37.3535	66.4221	37.3535	66.3977	37.3535	66.4524
38.8184	64.8699	38.8184	64.824	38.8184	64.9248	38.8184	64.7941	38.8184	64.9845	38.8184	64.789	38.8184	65.0474	38.8184	64.818	38.8184	65.1155	38.8184	64.8901	38.8184	65.194	38.8184	65.0123	38.8184	65.2909	38.8184	65.1879	38.8184	65.4158	38.8184	65.4157	38.8184	65.5779	38.8184	65.6893	38.8184	65.7833	38.8184	65.9977	38.8184	66.032	38.8184	66.3261	38.8184	66.3166	38.8184	66.6578	38.8184	66.6225	38.8184	66.9751	38.8184	66.9302	38.8184	67.2611	38.8184	67.218	38.8184	67.5004	38.8184	67.4658	38.8184	67.68	38.8184	67.6566	38.8184	67.7897	38.8184	67.7781	38.8184	67.8232
39.5508	65.5895	39.5508	65.5427	39.5508	65.6454	39.5508	65.5116	39.5508	65.7062	39.5508	65.5043	39.5508	65.7705	39.5508	65.5299	39.5508	65.8401	39.5508	65.5969	39.5508	65.9197	39.5508	65.712	39.5508	66.0168	39.5508	65.8787	39.5508	66.1401	39.5508	66.096	39.5508	66.2982	39.5508	66.3582	39.5508	66.4967	39.5508	66.655	39.5508	66.7355	39.5508	66.9723	39.5508	67.008	39.5508	67.294	39.5508	67.3004	39.5508	67.603	39.5508	67.5943	39.5508	67.8826	39.5508	67.8692	39.5508	68.1176	39.5508	68.1054	39.5508	68.295	39.5508	68.2867	39.5508	68.405	39.5508	68.4009	39.5508	68.4411
41.0156	66.9109	41.0156	66.8689	41.0156	66.965	41.0156	66.8446	41.0156	67.0273	41.0156	66.8451	41.0156	67.0963	41.0156	66.878	41.0156	67.1731	41.0156	66.9501	41.0156	67.2613	41.0156	67.0667	41.0156	67.3664	41.0156	67.2303	41.0156	67.4954	41.0156	67.4394	41.0156	67.6547	41.0156	67.6886	41.0156	67.8483	41.0156	67.9685	41.0156	68.0759	41.0156	68.2666	41.0156	68.3313	41.0156	68.5683	41.0156	68.6027	41.0156	68.858	41.0156	68.8738	41.0156	69.1204	41.0156	69.1268	41.0156	69.3414	41.0156	69.3438	41.0156	69.5089	41.0156	69.5099	41.0156	69.6135	41.0156	69.614	41.0156	69.6492
42.4805	68.8611	42.4805	68.8264	42.4805	68.9094	42.4805	68.8097	42.4805	68.9683	42.4805	68.8165	42.4805	69.0365	42.4805	68.8524	42.4805	69.1146	42.4805	68.9226	42.4805	69.2054	42.4805	69.0312	42.4805	69.3129	42.4805	69.18	42.4805	69.442	42.4805	69.3678	42.4805	69.5973	42.4805	69.5906	42.4805	69.7812	42.4805	69.8406	42.4805	69.9928	42.4805	70.1078	42.4805	70.2261	42.4805	70.3796	42.4805	70.4711	42.4805	70.6425	42.4805	70.7136	42.4805	70.8827	42.4805	70.938	42.4805	71.0872	42.4805	71.1289	42.4805	71.2446	42.4805	71.273	42.4805	71.346	42.4805	71.3605	42.4805	71.3854
43.9453	70.3211	43.9453	70.2848	43.9453	70.3699	43.9453	70.2651	43.9453	70.4288	43.9453	70.2663	43.9453	70.4965	43.9453	70.2935	43.9453	70.5733	43.9453	70.3512	43.9453	70.6611	43.9453	70.443	43.9453	70.7629	43.9453	70.5708	43.9453	70.8827	43.9453	70.734	43.9453	71.0239	43.9453	70.9296	43.9453	71.1885	43.9453	71.1513	43.9453	71.3756	43.9453	71.3904	43.9453	71.5806	43.9453	71.6359	43.9453	71.7947	43.9453	71.8757	43.9453	72.0062	43.9453	72.0969	43.9453	72.2014	43.9453	72.2873	43.9453	72.3666	43.9453	72.4361	43.9453	72.4898	43.9453	72.5348	43.9453	72.562	43.9453	72.5775
45.4102	71.6842	45.4102	71.6495	45.4102	71.7318	45.4102	71.6309	45.4102	71.7901	45.4102	71.6323	45.4102	71.8578	45.4102	71.6577	45.4102	71.9351	45.4102	71.7109	45.4102	72.0233	45.4102	71.7949	45.4102	72.1244	45.4102	71.9114	45.4102	72.2414	45.4102	72.0599	45.4102	72.3768	45.4102	72.2379	45.4102	72.5316	45.4102	72.4401	45.4102	72.7049	45.4102	72.6589	45.4102	72.8923	45.4102	72.8846	45.4102	73.0862	45.4102	73.1062	45.4102	73.2763	45.4102	73.3121	45.4102	73.4506	45.4102	73.4909	45.4102	73.5969	45.4102	73.6324	45.4102	73.7043	45.4102	73.7283	45.4102	73.7648	45.4102	73.7732
47.6074	73.3289	47.6074	73.294	47.6074	73.3768	47.6074	73.2747	47.6074	73.4358	47.6074	73.274	47.6074	73.5048	47.6074	73.2951	47.6074	73.5834	47.6074	73.3408	47.6074	73.6722	47.6074	73.4137	47.6074	73.7723	47.6074	73.5149	47.6074	73.8854	47.6074	73.6444	47.6074	74.0127	47.6074	73.8	47.6074	74.1546	47.6074	73.9776	47.6074	74.3098	47.6074	74.1711	47.6074	74.4744	47.6074	74.3722	47.6074	74.6421	47.6074	74.5716	47.6074	74.8043	47.6074	74.7589	47.6074	74.951	47.6074	74.9238	47.6074	75.0719	47.6074	75.057	47.6074	75.1579	47.6074	75.1508	47.6074	75.202	47.6074	75.1999
49.0723	74.1874	49.0723	74.1521	49.0723	74.2357	49.0723	74.1322	49.0723	74.2955	49.0723	74.1302	49.0723	74.3655	49.0723	74.1486	49.0723	74.4452	49.0723	74.1898	49.0723	74.5346	49.0723	74.2559	49.0723	74.6343	49.0723	74.3479	49.0723	74.7451	49.0723	74.4656	49.0723	74.8676	49.0723	74.6074	49.0723	75.0017	49.0723	74.7697	49.0723	75.1456	49.0723	74.9472	49.0723	75.296	49.0723	75.1327	49.0723	75.4472	49.0723	75.3178	49.0723	75.5917	49.0723	75.493	49.0723	75.7206	49.0723	75.6489	49.0723	75.8251	49.0723	75.7767	49.0723	75.897	49.0723	75.8691	49.0723	75.9302	49.0723	75.9211
50.5371	74.8087	50.5371	74.7732	50.5371	74.8573	50.5371	74.7528	50.5371	74.9174	50.5371	74.7496	50.5371	74.988	50.5371	74.7657	50.5371	75.0682	50.5371	74.8032	50.5371	75.1577	50.5371	74.8636	50.5371	75.2567	50.5371	74.9478	50.5371	75.3652	50.5371	75.0557	50.5371	75.4834	50.5371	75.1859	50.5371	75.6106	50.5371	75.3353	50.5371	75.7451	50.5371	75.4992	50.5371	75.8835	50.5371	75.6714	50.5371	76.0209	50.5371	75.844	50.5371	76.1505	50.5371	76.0087	50.5371	76.2645	50.5371	76.1566	50.5371	76.3552	50.5371	76.2795	50.5371	76.4153	50.5371	76.3706	50.5371	76.4395	50.5371	76.4247
52.7344	75.3859	52.7344	75.3496	52.7344	75.4352	52.7344	75.3278	52.7344	75.4961	52.7344	75.3222	52.7344	75.5673	52.7344	75.3344	52.7344	75.6479	52.7344	75.3658	52.7344	75.7371	52.7344	75.4176	52.7344	75.8342	52.7344	75.4905	52.7344	75.9388	52.7344	75.5843	52.7344	76.05	52.7344	75.6979	52.7344	76.1668	52.7344	75.8289	52.7344	76.2874	52.7344	75.9736	52.7344	76.4085	52.7344	76.1266	52.7344	76.526	52.7344	76.2816	52.7344	76.6343	52.7344	76.4312	52.7344	76.7272	52.7344	76.5676	52.7344	76.7981	52.7344	76.6834	52.7344	76.8414	52.7344	76.7723	52.7344	76.8527	52.7344	76.8296
54.1992	75.6242	54.1992	75.5877	54.1992	75.6735	54.1992	75.5656	54.1992	75.7345	54.1992	75.559	54.1992	75.8058	54.1992	75.5693	54.1992	75.8863	54.1992	75.5977	54.1992	75.975	54.1992	75.645	54.1992	76.0709	54.1992	75.7117	54.1992	76.173	54.1992	75.7978	54.1992	76.2803	54.1992	75.9022	54.1992	76.3914	54.1992	76.0228	54.1992	76.5042	54.1992	76.1564	54.1992	76.6158	54.1992	76.2984	54.1992	76.7223	54.1992	76.443	54.1992	76.8189	54.1992	76.5836	54.1992	76.8999	54.1992	76.713	54.1992	76.9599	54.1992	76.8244	54.1992	76.9937	54.1992	76.9117	54.1992	76.9978	54.1992	76.9704
56.3965	75.8065	56.3965	75.7688	56.3965	75.8569	56.3965	75.7449	56.3965	75.9189	56.3965	75.7357	56.3965	75.9911	56.3965	75.7423	56.3965	76.0721	56.3965	75.7654	56.3965	76.1607	56.3965	75.8056	56.3965	76.2553	56.3965	75.8631	56.3965	76.3544	56.3965	75.9379	56.3965	76.4564	56.3965	76.0292	56.3965	76.5596	56.3965	76.1353	56.3965	76.6616	56.3965	76.2536	56.3965	76.7597	56.3965	76.3805	56.3965	76.8506	56.3965	76.5112	56.3965	76.9301	56.3965	76.6399	56.3965	76.9939	56.3965	76.7604	56.3965	77.0375	56.3965	76.8666	56.3965	77.057	56.3965	76.9529	56.3965	77.0499	56.3965	77.0149
