* Measurement data measured by REW V5.30.8
* Source: C:\Users\User\Documents\Sun Audio\Spinorama\Purified 4 PP T25A\Polar FR\Purified_4_XP25A_PolarFR V000H300.txt
* Format: Comma/Tab/Space delimited data
* Dated: 16-feb-2024 13:25:20
* REW Settings:
*  C-weighting compensation: Off
*  Target level: 75.0 dB
* Note: Sun Audio Purified 4 XP25A Crossover: Woofer: BW12 @ 1495Hz Tweeter: BW18 @ 2201Hz; Measurement imported from C:\Users\User\Documents\Sun Audio\Spinorama\Purified 4 PP T25A\Polar FR\Purified_4_XP25A_PolarFR V000H300.txt Format: Comma/Tab/Space delimited data 587 values loaded, 5 Hz to 23.661 Hz log spaced
* Measurement: Purified_4_XP25A_PolarFR V
* Smoothing: None
* Frequency Step: 96 ppo
* Start Frequency: 5.0 Hz
*
* Freq(Hz) SPL(dB) Phase(degrees)
5.000000 25.862 -112.2710
5.036232 25.888 -112.7445
5.072727 25.917 -113.2549
5.109486 25.950 -113.8490
5.146511 25.988 -114.5350
5.183805 26.033 -115.3558
5.221369 26.083 -116.2539
5.259205 26.134 -117.1794
5.297315 26.188 -118.1528
5.335701 26.245 -119.1916
5.374366 26.304 -120.2559
5.413311 26.362 -121.3069
5.452538 26.420 -122.3579
5.492049 26.478 -123.4112
5.531847 26.537 -124.4608
5.571933 26.596 -125.5033
5.612310 26.658 -126.5339
5.652979 26.722 -127.5522
5.693943 26.791 -128.5420
5.735203 26.868 -129.4888
5.776763 26.953 -130.3870
5.818624 27.048 -131.2249
5.860788 27.153 -132.0059
5.903257 27.268 -132.7292
5.946035 27.392 -133.3958
5.989122 27.526 -134.0030
6.032522 27.668 -134.5620
6.076236 27.816 -135.0784
6.120267 27.969 -135.5669
6.164618 28.124 -136.0436
6.209289 28.280 -136.5089
6.254284 28.437 -136.9676
6.299605 28.594 -137.4229
6.345254 28.751 -137.8804
6.391235 28.909 -138.3379
6.437548 29.066 -138.7949
6.484197 29.224 -139.2519
6.531184 29.381 -139.7094
6.578512 29.539 -140.1669
6.626183 29.697 -140.6244
6.674199 29.854 -141.0819
6.722563 30.011 -141.5393
6.771277 30.168 -141.9969
6.820345 30.325 -142.4549
6.869768 30.483 -142.9129
6.919549 30.640 -143.3704
6.969691 30.798 -143.8279
7.020196 30.956 -144.2858
7.071068 31.113 -144.7439
7.122308 31.270 -145.2019
7.173919 31.427 -145.6599
7.225904 31.584 -146.1178
7.278266 31.742 -146.5759
7.331007 31.899 -147.0344
7.384131 32.057 -147.4929
7.437639 32.215 -147.9509
7.491536 32.372 -148.4088
7.545823 32.529 -148.8673
7.600503 32.686 -149.3259
7.655580 32.843 -149.7843
7.711055 33.001 -150.2429
7.766933 33.158 -150.7019
7.823215 33.316 -151.1609
7.879906 33.474 -151.6194
7.937007 33.631 -152.0778
7.994522 33.788 -152.5368
8.052453 33.945 -152.9959
8.110805 34.102 -153.4548
8.169579 34.260 -153.9138
8.228779 34.417 -154.3738
8.288408 34.575 -154.8328
8.348470 34.732 -155.2895
8.408966 34.889 -155.7429
8.469901 35.045 -156.1929
8.531278 35.200 -156.6348
8.593099 35.354 -157.0644
8.655368 35.507 -157.4798
8.718088 35.657 -157.8773
8.781263 35.806 -158.2579
8.844896 35.953 -158.6214
8.908990 36.098 -158.9679
8.973548 36.242 -159.2958
9.038574 36.384 -159.6089
9.104072 36.525 -159.9088
9.170044 36.665 -160.1999
9.236494 36.804 -160.4868
9.303426 36.943 -160.7699
9.370842 37.082 -161.0510
9.438747 37.221 -161.3309
9.507145 37.360 -161.6109
9.576037 37.499 -161.8909
9.645430 37.638 -162.1713
9.715324 37.777 -162.4519
9.785726 37.915 -162.7328
9.856637 38.054 -163.0139
9.928062 38.193 -163.2949
10.000006 38.332 -163.5759
10.072470 38.471 -163.8568
10.145459 38.610 -164.1377
10.218977 38.748 -164.4188
10.293028 38.887 -164.7000
10.367616 39.026 -164.9810
10.442743 39.165 -165.2620
10.518415 39.304 -165.5434
10.594636 39.443 -165.8250
10.671409 39.582 -166.1070
10.748738 39.721 -166.3890
10.826628 39.859 -166.6704
10.905082 39.998 -166.9518
10.984104 40.137 -167.2338
11.063700 40.276 -167.5158
11.143872 40.415 -167.7977
11.224626 40.553 -168.0789
11.305964 40.691 -168.3594
11.387891 40.829 -168.6388
11.470412 40.966 -168.9169
11.553532 41.102 -169.1929
11.637254 41.237 -169.4656
11.721582 41.371 -169.7358
11.806521 41.504 -170.0040
11.892076 41.637 -170.2698
11.978251 41.768 -170.5324
12.065051 41.899 -170.7930
12.152479 42.029 -171.0520
12.240541 42.158 -171.3100
12.329242 42.287 -171.5676
12.418585 42.416 -171.8248
12.508575 42.545 -172.0814
12.599217 42.674 -172.3379
12.690516 42.803 -172.5947
12.782477 42.932 -172.8518
12.875105 43.061 -173.1093
12.968403 43.190 -173.3668
13.062377 43.318 -173.6239
13.157032 43.447 -173.8809
13.252374 43.576 -174.1382
13.348406 43.705 -174.3958
13.445134 43.834 -174.6537
13.542563 43.963 -174.9117
13.640698 44.092 -175.1698
13.739545 44.221 -175.4279
13.839108 44.349 -175.6857
13.939391 44.478 -175.9438
14.040401 44.607 -176.2027
14.142144 44.735 -176.4619
14.244624 44.862 -176.7208
14.347847 44.988 -176.9799
14.451818 45.114 -177.2397
14.556541 45.238 -177.4999
14.662024 45.361 -177.7606
14.768271 45.482 -178.0217
14.875288 45.602 -178.2835
14.983081 45.722 -178.5458
15.091655 45.840 -178.8086
15.201015 45.958 -179.0718
15.311169 46.075 -179.3353
15.422120 46.192 -179.5988
15.533875 46.309 -179.8622
15.646441 46.425 179.8741
15.759821 46.541 179.6097
15.874023 46.658 179.3452
15.989053 46.774 179.0812
16.104916 46.891 178.8172
16.221619 47.007 178.5523
16.339167 47.124 178.2873
16.457567 47.240 178.0228
16.576826 47.357 177.7582
16.696949 47.473 177.4929
16.817942 47.590 177.2272
16.939812 47.706 176.9612
17.062565 47.823 176.6943
17.186207 47.939 176.4260
17.310745 48.056 176.1561
17.436186 48.173 175.8845
17.562536 48.290 175.6112
17.689802 48.407 175.3361
17.817989 48.525 175.0593
17.947105 48.643 174.7805
18.077158 48.761 174.5002
18.208153 48.878 174.2187
18.340097 48.996 173.9363
18.472998 49.114 173.6534
18.606861 49.232 173.3701
18.741693 49.350 173.0863
18.877504 49.468 172.8022
19.014299 49.586 172.5184
19.152084 49.704 172.2343
19.290869 49.822 171.9494
19.430658 49.940 171.6642
19.571461 50.058 171.3791
19.713284 50.176 171.0933
19.856134 50.294 170.8064
20.000021 50.411 170.5182
20.144949 50.528 170.2286
20.290928 50.645 169.9372
20.437963 50.762 169.6437
20.586065 50.878 169.3481
20.735241 50.994 169.0502
20.885496 51.109 168.7503
21.036840 51.224 168.4486
21.189281 51.339 168.1454
21.342827 51.454 167.8403
21.497486 51.569 167.5344
21.653265 51.683 167.2286
21.810173 51.798 166.9224
21.968218 51.912 166.6151
22.127409 52.027 166.3073
22.287754 52.141 165.9995
22.449261 52.255 165.6912
22.611937 52.369 165.3828
22.775791 52.484 165.0734
22.940834 52.598 164.7623
23.107073 52.711 164.4494
23.274517 52.824 164.1343
23.443174 52.937 163.8174
23.613052 53.050 163.4988
23.784163 53.163 163.1782
23.956512 53.275 162.8556
24.130112 53.387 162.5314
24.304968 53.498 162.2059
24.481092 53.610 161.8794
24.658493 53.721 161.5517
24.837179 53.833 161.2234
25.017160 53.944 160.8952
25.198444 54.056 160.5663
25.381042 54.167 160.2363
25.564964 54.278 159.9053
25.750219 54.389 159.5731
25.936815 54.500 159.2394
26.124763 54.610 158.9034
26.314074 54.720 158.5654
26.504757 54.829 158.2255
26.696821 54.939 157.8834
26.890278 55.048 157.5388
27.085136 55.157 157.1924
27.281406 55.266 156.8441
27.479099 55.375 156.4944
27.678225 55.483 156.1439
27.878792 55.591 155.7924
28.080812 55.699 155.4404
28.284298 55.808 155.0874
28.489258 55.915 154.7337
28.695704 56.023 154.3784
28.903645 56.130 154.0210
29.113092 56.238 153.6615
29.324059 56.346 153.2999
29.536552 56.453 152.9364
29.750586 56.560 152.5712
29.966171 56.666 152.2043
30.183319 56.772 151.8357
30.402040 56.879 151.4654
30.622347 56.985 151.0935
30.844250 57.091 150.7204
31.067760 57.196 150.3466
31.292891 57.302 149.9715
31.519651 57.407 149.5948
31.748056 57.513 149.2164
31.978115 57.618 148.8359
32.209843 57.723 148.4534
32.443249 57.828 148.0690
32.678345 57.932 147.6824
32.915146 58.036 147.2934
33.153664 58.140 146.9024
33.393909 58.244 146.5097
33.635895 58.348 146.1155
33.879635 58.451 145.7202
34.125141 58.554 145.3235
34.372425 58.657 144.9253
34.621502 58.760 144.5255
34.872383 58.862 144.1239
35.125084 58.965 143.7204
35.379616 59.067 143.3148
35.635990 59.169 142.9074
35.894222 59.271 142.4984
36.154327 59.372 142.0875
36.416317 59.473 141.6744
36.680206 59.574 141.2596
36.946007 59.674 140.8434
37.213734 59.775 140.4255
37.483398 59.875 140.0055
37.755020 59.976 139.5836
38.028610 60.076 139.1600
38.304180 60.175 138.7345
38.581749 60.275 138.3066
38.861328 60.374 137.8766
39.142933 60.473 137.4445
39.426579 60.571 137.0106
39.712280 60.669 136.5749
40.000053 60.768 136.1376
40.289909 60.866 135.6985
40.581867 60.964 135.2576
40.875938 61.061 134.8146
41.172142 61.158 134.3696
41.470493 61.255 133.9227
41.771004 61.352 133.4737
42.073692 61.449 133.0226
42.378574 61.545 132.5696
42.685665 61.641 132.1150
42.994984 61.736 131.6586
43.306541 61.832 131.2001
43.620358 61.927 130.7396
43.936447 62.022 130.2771
44.254829 62.116 129.8127
44.575520 62.210 129.3467
44.898533 62.304 128.8787
45.223885 62.397 128.4083
45.551594 62.491 127.9356
45.881680 62.584 127.4608
46.214157 62.677 126.9837
46.549046 62.769 126.5043
46.886360 62.862 126.0227
47.226116 62.954 125.5389
47.568336 63.046 125.0527
47.913036 63.138 124.5641
48.260235 63.230 124.0727
48.609947 63.321 123.5785
48.962196 63.412 123.0817
49.316998 63.503 122.5824
49.674370 63.594 122.0807
50.034332 63.685 121.5769
50.396900 63.776 121.0707
50.762096 63.866 120.5621
51.129940 63.957 120.0508
51.500450 64.047 119.5366
51.873642 64.137 119.0198
52.249538 64.226 118.5005
52.628159 64.315 117.9788
53.009525 64.404 117.4548
53.393654 64.493 116.9288
53.780567 64.581 116.4009
54.170284 64.668 115.8708
54.562824 64.756 115.3380
54.958210 64.843 114.8028
55.356461 64.930 114.2653
55.757595 65.016 113.7258
56.161636 65.102 113.1842
56.568607 65.187 112.6408
56.978527 65.272 112.0958
57.391418 65.357 111.5489
57.807301 65.441 111.0002
58.226196 65.525 110.4499
58.648129 65.609 109.8981
59.073116 65.692 109.3448
59.501183 65.775 108.7901
59.932354 65.857 108.2339
60.366650 65.939 107.6761
60.804092 66.020 107.1169
61.244705 66.101 106.5561
61.688511 66.182 105.9939
62.135532 66.262 105.4302
62.585793 66.341 104.8649
63.039314 66.420 104.2978
63.496124 66.498 103.7289
63.956242 66.576 103.1579
64.419693 66.653 102.5849
64.886505 66.730 102.0100
65.356697 66.806 101.4329
65.830299 66.881 100.8532
66.307335 66.956 100.2711
66.787827 67.030 99.6864
67.271797 67.104 99.0990
67.759277 67.177 98.5084
68.250290 67.250 97.9150
68.744858 67.322 97.3189
69.243011 67.393 96.7200
69.744774 67.464 96.1180
70.250175 67.534 95.5130
70.759239 67.603 94.9054
71.271988 67.672 94.2950
71.788452 67.741 93.6819
72.308662 67.809 93.0661
72.832642 67.877 92.4472
73.360420 67.944 91.8260
73.892021 68.011 91.2030
74.427475 68.078 90.5781
74.966805 68.144 89.9514
75.510048 68.210 89.3230
76.057228 68.276 88.6928
76.608368 68.341 88.0611
77.163506 68.406 87.4283
77.722664 68.470 86.7942
78.285873 68.534 86.1591
78.853165 68.597 85.5232
79.424568 68.660 84.8870
80.000114 68.722 84.2501
80.579826 68.784 83.6121
81.163742 68.845 82.9731
81.751884 68.905 82.3331
82.344292 68.965 81.6922
82.940994 69.024 81.0503
83.542023 69.082 80.4072
84.147400 69.140 79.7627
84.757164 69.197 79.1171
85.371353 69.253 78.4707
85.989990 69.309 77.8232
86.613106 69.364 77.1743
87.240738 69.419 76.5242
87.872917 69.472 75.8729
88.509682 69.525 75.2202
89.151062 69.577 74.5660
89.797089 69.629 73.9102
90.447792 69.680 73.2527
91.103210 69.730 72.5933
91.763382 69.780 71.9322
92.428337 69.829 71.2693
93.098114 69.877 70.6041
93.772743 69.925 69.9373
94.452263 69.973 69.2689
95.136703 70.021 68.5993
95.826103 70.068 67.9284
96.520500 70.114 67.2573
97.219925 70.160 66.5869
97.924423 70.206 65.9173
98.634026 70.251 65.2492
99.348770 70.296 64.5822
100.068695 70.340 63.9163
100.793831 70.383 63.2516
101.524223 70.425 62.5884
102.259911 70.466 61.9255
103.000931 70.506 61.2616
103.747314 70.545 60.5962
104.499107 70.583 59.9282
105.256348 70.620 59.2581
106.019081 70.657 58.5861
106.787338 70.694 57.9122
107.561165 70.730 57.2361
108.340599 70.766 56.5590
109.125679 70.801 55.8813
109.916451 70.836 55.2041
110.712952 70.871 54.5291
111.515221 70.905 53.8553
112.323303 70.939 53.1826
113.137245 70.972 52.5113
113.957085 71.004 51.8420
114.782867 71.035 51.1736
115.614632 71.065 50.5050
116.452423 71.095 49.8362
117.296288 71.124 49.1666
118.146263 71.152 48.4963
119.002403 71.179 47.8250
119.864746 71.206 47.1527
120.733337 71.232 46.4787
121.608223 71.258 45.8043
122.489449 71.283 45.1305
123.377060 71.308 44.4575
124.271103 71.333 43.7855
125.171623 71.357 43.1151
126.078667 71.381 42.4472
126.992287 71.404 41.7813
127.912521 71.427 41.1172
128.839432 71.449 40.4552
129.773056 71.470 39.7957
130.713440 71.491 39.1382
131.660645 71.511 38.4821
132.614716 71.530 37.8277
133.575699 71.549 37.1748
134.543640 71.567 36.5241
135.518600 71.584 35.8760
136.500626 71.601 35.2311
137.489761 71.618 34.5901
138.486069 71.634 33.9525
139.489594 71.649 33.3182
140.500397 71.663 32.6872
141.518524 71.677 32.0593
142.544022 71.691 31.4344
143.576950 71.704 30.8124
144.617371 71.716 30.1932
145.665329 71.728 29.5775
146.720886 71.740 28.9646
147.784088 71.751 28.3535
148.854996 71.762 27.7454
149.933655 71.772 27.1414
151.020142 71.782 26.5403
152.114502 71.792 25.9421
153.216782 71.802 25.3466
154.327057 71.811 24.7534
155.445374 71.820 24.1622
156.571793 71.829 23.5729
157.706375 71.838 22.9852
158.849182 71.847 22.3990
160.000275 71.855 21.8143
161.159698 71.864 21.2308
162.327530 71.872 20.6482
163.503815 71.880 20.0659
164.688629 71.888 19.4841
165.882034 71.896 18.9026
167.084091 71.904 18.3214
168.294846 71.912 17.7406
169.514374 71.919 17.1593
170.742752 71.926 16.5765
171.980026 71.933 15.9924
173.226257 71.941 15.4069
174.481522 71.948 14.8202
175.745880 71.955 14.2335
177.019409 71.961 13.6453
178.302170 71.967 13.0540
179.594223 71.973 12.4603
180.895630 71.978 11.8651
182.206467 71.983 11.2673
183.526810 71.988 10.6658
184.856720 71.992 10.0612
186.196274 71.996 9.4536
187.545532 71.999 8.8433
188.904572 72.001 8.2308
190.273453 72.003 7.6154
191.652252 72.004 6.9962
193.041046 72.004 6.3736
194.439896 72.003 5.7477
195.848892 72.001 5.1187
197.268097 71.998 4.4869
198.697586 71.995 3.8524
200.137436 71.991 3.2150
201.587708 71.985 2.5754
203.048492 71.978 1.9338
204.519867 71.969 1.2908
206.001907 71.960 0.6464
207.494675 71.949 0.0015
208.998260 71.936 -0.6433
210.512741 71.922 -1.2877
212.038208 71.907 -1.9313
213.574722 71.890 -2.5736
215.122375 71.871 -3.2145
216.681244 71.850 -3.8524
218.251404 71.828 -4.4860
219.832947 71.804 -5.1154
221.425949 71.778 -5.7408
223.030487 71.751 -6.3606
224.646652 71.722 -6.9725
226.274536 71.692 -7.5766
227.914215 71.660 -8.1724
229.565781 71.626 -8.7587
231.229309 71.591 -9.3350
232.904892 71.555 -9.9004
234.592621 71.518 -10.4542
236.292572 71.479 -10.9957
238.004852 71.439 -11.5242
239.729538 71.398 -12.0388
241.466721 71.357 -12.5386
243.216492 71.315 -13.0238
244.978943 71.273 -13.4944
246.754166 71.230 -13.9498
248.542252 71.188 -14.3894
250.343292 71.146 -14.8129
252.157379 71.104 -15.2199
253.984619 71.063 -15.6111
255.825104 71.023 -15.9867
257.678925 70.983 -16.3472
259.546173 70.944 -16.6927
261.426941 70.906 -17.0243
263.321350 70.869 -17.3427
265.229492 70.833 -17.6492
267.151459 70.798 -17.9453
269.087341 70.765 -18.2322
271.037262 70.733 -18.5115
273.001312 70.703 -18.7843
274.979584 70.675 -19.0515
276.972198 70.648 -19.3153
278.979248 70.623 -19.5776
281.000854 70.600 -19.8394
283.037109 70.578 -20.1012
285.088104 70.558 -20.3652
287.153961 70.540 -20.6338
289.234802 70.524 -20.9073
291.330719 70.509 -21.1868
293.441833 70.495 -21.4733
295.568237 70.483 -21.7684
297.710052 70.471 -22.0723
299.867371 70.460 -22.3854
302.040344 70.450 -22.7081
304.229065 70.441 -23.0410
306.433624 70.433 -23.3842
308.654175 70.425 -23.7374
310.890808 70.417 -24.1011
313.143646 70.409 -24.4752
315.412811 70.401 -24.8590
317.698425 70.393 -25.2522
320.000610 70.385 -25.6539
322.319458 70.376 -26.0632
324.655121 70.367 -26.4797
327.007690 70.358 -26.9034
329.377319 70.348 -27.3328
331.764130 70.337 -27.7667
334.168243 70.326 -28.2047
336.589752 70.314 -28.6461
339.028809 70.302 -29.0898
341.485565 70.289 -29.5349
343.960114 70.275 -29.9808
346.452576 70.261 -30.4269
348.963104 70.246 -30.8729
351.491821 70.231 -31.3183
354.038879 70.216 -31.7628
356.604401 70.201 -32.2061
359.188507 70.185 -32.6478
361.791321 70.169 -33.0872
364.413025 70.153 -33.5249
367.053711 70.137 -33.9610
369.713531 70.122 -34.3958
372.392639 70.107 -34.8295
375.091156 70.093 -35.2618
377.809235 70.078 -35.6924
380.546997 70.064 -36.1218
383.304596 70.051 -36.5511
386.082184 70.038 -36.9799
388.879883 70.026 -37.4076
391.697876 70.014 -37.8348
394.536285 70.002 -38.2620
397.395264 69.990 -38.6888
400.274963 69.978 -39.1156
403.175507 69.967 -39.5417
406.097076 69.956 -39.9669
409.039825 69.944 -40.3908
412.003906 69.932 -40.8137
414.989471 69.919 -41.2347
417.996643 69.906 -41.6536
421.025604 69.893 -42.0698
424.076538 69.879 -42.4835
427.149567 69.864 -42.8938
430.244873 69.848 -43.2999
433.362610 69.832 -43.7018
436.502930 69.816 -44.0990
439.666016 69.799 -44.4908
442.852020 69.781 -44.8768
446.061096 69.763 -45.2570
449.293427 69.745 -45.6311
452.549194 69.727 -45.9990
455.828552 69.709 -46.3597
459.131683 69.691 -46.7140
462.458740 69.673 -47.0619
465.809906 69.656 -47.4041
469.185364 69.640 -47.7407
472.585266 69.624 -48.0731
476.009827 69.609 -48.4017
479.459198 69.595 -48.7280
482.933563 69.582 -49.0532
486.433105 69.571 -49.3790
489.958008 69.562 -49.7069
493.508453 69.554 -50.0391
497.084625 69.548 -50.3778
500.686707 69.544 -50.7250
504.314880 69.542 -51.0822
507.969360 69.542 -51.4519
511.650330 69.543 -51.8369
515.357971 69.545 -52.2378
519.092468 69.549 -52.6558
522.854004 69.554 -53.0917
526.642822 69.559 -53.5472
530.459106 69.564 -54.0215
534.303040 69.569 -54.5144
538.174805 69.574 -55.0244
542.074646 69.578 -55.5513
546.002747 69.580 -56.0923
549.959290 69.581 -56.6450
553.944519 69.580 -57.2073
557.958618 69.578 -57.7771
562.001831 69.574 -58.3512
566.074341 69.569 -58.9266
570.176331 69.563 -59.5012
574.308044 69.555 -60.0719
578.469727 69.547 -60.6382
582.661560 69.539 -61.1987
586.883789 69.531 -61.7543
591.136597 69.524 -62.3043
595.420227 69.518 -62.8513
599.734863 69.513 -63.3959
604.080811 69.510 -63.9423
608.458252 69.508 -64.4932
612.867371 69.508 -65.0523
617.308472 69.510 -65.6232
621.781738 69.513 -66.2082
626.287415 69.517 -66.8108
630.825745 69.521 -67.4301
635.396973 69.524 -68.0676
640.001343 69.526 -68.7200
644.639038 69.525 -69.3867
649.310364 69.522 -70.0599
654.015564 69.515 -70.7340
658.754822 69.504 -71.4000
663.528442 69.488 -72.0504
668.336670 69.469 -72.6761
673.179688 69.446 -73.2676
678.057800 69.421 -73.8184
682.971313 69.394 -74.3191
687.920410 69.366 -74.7697
692.905396 69.340 -75.1653
697.926453 69.316 -75.5120
702.983887 69.297 -75.8099
708.078003 69.284 -76.0712
713.209045 69.278 -76.3025
718.377258 69.280 -76.5203
723.582886 69.292 -76.7379
728.826294 69.312 -76.9722
734.107666 69.341 -77.2397
739.427307 69.379 -77.5549
744.785522 69.424 -77.9346
750.182556 69.474 -78.3884
755.618713 69.528 -78.9310
761.094238 69.584 -79.5637
766.609436 69.640 -80.2949
772.164612 69.696 -81.1191
777.760010 69.748 -82.0369
783.395996 69.796 -83.0387
789.072815 69.838 -84.1198
794.790771 69.874 -85.2662
800.550171 69.902 -86.4668
806.351257 69.924 -87.7069
