"SPL Horizontal"																																																																							
"On-Axis"		"10°"		"-10°"		"20°"		"-20°"		"30°"		"-30°"		"40°"		"-40°"		"50°"		"-50°"		"60°"		"-60°"		"70°"		"-70°"		"80°"		"-80°"		"90°"		"-90°"		"100°"		"-100°"		"110°"		"-110°"		"120°"		"-120°"		"130°"		"-130°"		"140°"		"-140°"		"150°"		"-150°"		"160°"		"-160°"		"170°"		"-170°"		"180°"	
"Frequency [Hz]"	"Sound Pessure Level [dB]  / [2.83V 1m] "	"Frequency [Hz]"	"Sound Pessure Level [dB]  / [2.83V 1m] "	"Frequency [Hz]"	"Sound Pessure Level [dB]  / [2.83V 1m] "	"Frequency [Hz]"	"Sound Pessure Level [dB]  / [2.83V 1m] "	"Frequency [Hz]"	"Sound Pessure Level [dB]  / [2.83V 1m] "	"Frequency [Hz]"	"Sound Pessure Level [dB]  / [2.83V 1m] "	"Frequency [Hz]"	"Sound Pessure Level [dB]  / [2.83V 1m] "	"Frequency [Hz]"	"Sound Pessure Level [dB]  / [2.83V 1m] "	"Frequency [Hz]"	"Sound Pessure Level [dB]  / [2.83V 1m] "	"Frequency [Hz]"	"Sound Pessure Level [dB]  / [2.83V 1m] "	"Frequency [Hz]"	"Sound Pessure Level [dB]  / [2.83V 1m] "	"Frequency [Hz]"	"Sound Pessure Level [dB]  / [2.83V 1m] "	"Frequency [Hz]"	"Sound Pessure Level [dB]  / [2.83V 1m] "	"Frequency [Hz]"	"Sound Pessure Level [dB]  / [2.83V 1m] "	"Frequency [Hz]"	"Sound Pessure Level [dB]  / [2.83V 1m] "	"Frequency [Hz]"	"Sound Pessure Level [dB]  / [2.83V 1m] "	"Frequency [Hz]"	"Sound Pessure Level [dB]  / [2.83V 1m] "	"Frequency [Hz]"	"Sound Pessure Level [dB]  / [2.83V 1m] "	"Frequency [Hz]"	"Sound Pessure Level [dB]  / [2.83V 1m] "	"Frequency [Hz]"	"Sound Pessure Level [dB]  / [2.83V 1m] "	"Frequency [Hz]"	"Sound Pessure Level [dB]  / [2.83V 1m] "	"Frequency [Hz]"	"Sound Pessure Level [dB]  / [2.83V 1m] "	"Frequency [Hz]"	"Sound Pessure Level [dB]  / [2.83V 1m] "	"Frequency [Hz]"	"Sound Pessure Level [dB]  / [2.83V 1m] "	"Frequency [Hz]"	"Sound Pessure Level [dB]  / [2.83V 1m] "	"Frequency [Hz]"	"Sound Pessure Level [dB]  / [2.83V 1m] "	"Frequency [Hz]"	"Sound Pessure Level [dB]  / [2.83V 1m] "	"Frequency [Hz]"	"Sound Pessure Level [dB]  / [2.83V 1m] "	"Frequency [Hz]"	"Sound Pessure Level [dB]  / [2.83V 1m] "	"Frequency [Hz]"	"Sound Pessure Level [dB]  / [2.83V 1m] "	"Frequency [Hz]"	"Sound Pessure Level [dB]  / [2.83V 1m] "	"Frequency [Hz]"	"Sound Pessure Level [dB]  / [2.83V 1m] "	"Frequency [Hz]"	"Sound Pessure Level [dB]  / [2.83V 1m] "	"Frequency [Hz]"	"Sound Pessure Level [dB]  / [2.83V 1m] "	"Frequency [Hz]"	"Sound Pessure Level [dB]  / [2.83V 1m] "	"Frequency [Hz]"	"Sound Pessure Level [dB]  / [2.83V 1m] "
20.5078	55.1865	20.5078	55.16	20.5078	55.1593	20.5078	55.1008	20.5078	55.0835	20.5078	55.0587	20.5078	54.9913	20.5078	55.1141	20.5078	54.9463	20.5078	55.367	20.5078	55.0425	20.5078	55.9003	20.5078	55.3829	20.5078	56.7333	20.5078	56.0331	20.5078	57.8068	20.5078	56.9787	20.5078	59.0168	20.5078	58.1327	20.5078	60.2598	20.5078	59.3828	20.5078	61.4561	20.5078	60.6316	20.5078	62.5514	20.5078	61.8091	20.5078	63.5096	20.5078	62.8691	20.5078	64.3069	20.5078	63.7812	20.5078	64.9264	20.5078	64.5248	20.5078	65.3568	20.5078	65.0856	20.5078	65.5903	20.5078	65.4537	20.5078	65.6228
23.4375	58.9753	23.4375	58.9435	23.4375	58.9669	23.4375	58.8881	23.4375	58.9228	23.4375	58.8485	23.4375	58.8689	23.4375	58.8887	23.4375	58.8545	23.4375	59.0895	23.4375	58.9504	23.4375	59.5242	23.4375	59.236	23.4375	60.2232	23.4375	59.7696	23.4375	61.1544	23.4375	60.5573	23.4375	62.2389	23.4375	61.5473	23.4375	63.3853	23.4375	62.6552	23.4375	64.5145	23.4375	63.7947	23.4375	65.5674	23.4375	64.8956	23.4375	66.5018	23.4375	65.9062	23.4375	67.2879	23.4375	66.789	23.4375	67.9041	23.4375	67.5172	23.4375	68.3349	23.4375	68.0711	23.4375	68.57	23.4375	68.4363	23.4375	68.6041
26.3672	62.3935	26.3672	62.3978	26.3672	62.3786	26.3672	62.4044	26.3672	62.3565	26.3672	62.4424	26.3672	62.347	26.3672	62.5556	26.3672	62.3864	26.3672	62.7956	26.3672	62.5241	26.3672	63.2074	26.3672	62.8131	26.3672	63.8111	26.3672	63.2919	26.3672	64.5905	26.3672	63.9673	26.3672	65.4982	26.3672	64.8084	26.3672	66.4713	26.3672	65.758	26.3672	67.4478	26.3672	66.7507	26.3672	68.3744	26.3672	67.7261	26.3672	69.2092	26.3672	68.635	26.3672	69.9195	26.3672	69.4389	26.3672	70.4809	26.3672	70.1082	26.3672	70.8752	26.3672	70.621	26.3672	71.0902	26.3672	70.9614	26.3672	71.1193
29.2969	66.2888	29.2969	66.2993	29.2969	66.2882	29.2969	66.328	29.2969	66.2997	29.2969	66.3936	29.2969	66.3361	29.2969	66.5232	29.2969	66.4198	29.2969	66.7483	29.2969	66.5801	29.2969	67.0973	29.2969	66.8482	29.2969	67.5852	29.2969	67.2477	29.2969	68.2074	29.2969	67.7865	29.2969	68.9379	29.2969	68.4516	29.2969	69.7361	29.2969	69.2109	29.2969	70.5552	29.2969	70.021	29.2969	71.3495	29.2969	70.8355	29.2969	72.0785	29.2969	71.6106	29.2969	72.7084	29.2969	72.3083	29.2969	73.2123	29.2969	72.8972	29.2969	73.5697	29.2969	73.3525	29.2969	73.7668	29.2969	73.656	29.2969	73.7959
32.2266	69.844	32.2266	69.8633	32.2266	69.8439	32.2266	69.9075	32.2266	69.8645	32.2266	69.9887	32.2266	69.914	32.2266	70.1242	32.2266	70.0069	32.2266	70.3341	32.2266	70.1621	32.2266	70.6367	32.2266	70.3997	32.2266	71.0429	32.2266	70.7358	32.2266	71.5523	32.2266	71.1779	32.2266	72.1502	32.2266	71.7205	32.2266	72.8102	32.2266	72.3444	32.2266	73.4978	32.2266	73.0198	32.2266	74.1755	32.2266	73.7107	32.2266	74.8072	32.2266	74.3796	32.2266	75.3599	32.2266	74.991	32.2266	75.8064	32.2266	75.5138	32.2266	76.1249	32.2266	75.9222	32.2266	76.3005	32.2266	76.1968	32.2266	76.3249
35.1563	73.3003	35.1563	73.3236	35.1563	73.3014	35.1563	73.3751	35.1563	73.3281	35.1563	73.4623	35.1563	73.3854	35.1563	73.5961	35.1563	73.4825	35.1563	73.7891	35.1563	73.6313	35.1563	74.0528	35.1563	73.8442	35.1563	74.3951	35.1563	74.132	35.1563	74.8167	35.1563	74.5004	35.1563	75.3094	35.1563	74.9472	35.1563	75.8559	35.1563	75.4611	35.1563	76.4313	35.1563	76.022	35.1563	77.0061	35.1563	76.6031	35.1563	77.5491	35.1563	77.1738	35.1563	78.0301	35.1563	77.7026	35.1563	78.4223	35.1563	78.1604	35.1563	78.704	35.1563	78.5215	35.1563	78.8598	35.1563	78.7661	35.1563	78.8809
38.0859	76.3808	38.0859	76.4041	38.0859	76.384	38.0859	76.4562	38.0859	76.4143	38.0859	76.5419	38.0859	76.475	38.0859	76.668	38.0859	76.5716	38.0859	76.8423	38.0859	76.7116	38.0859	77.0725	38.0859	76.9028	38.0859	77.3637	38.0859	77.1521	38.0859	77.7171	38.0859	77.4635	38.0859	78.1277	38.0859	77.8363	38.0859	78.5841	38.0859	78.2635	38.0859	79.0681	38.0859	78.7314	38.0859	79.5564	38.0859	79.2202	38.0859	80.0228	38.0859	79.7053	38.0859	80.4404	38.0859	80.1599	38.0859	80.784	38.0859	80.5573	38.0859	81.0327	38.0859	80.8735	38.0859	81.1709	38.0859	81.0888	38.0859	81.1901
41.0156	78.9842	41.0156	79.0091	41.0156	78.9875	41.0156	79.0637	41.0156	79.0193	41.0156	79.1506	41.0156	79.0816	41.0156	79.2739	41.0156	79.1776	41.0156	79.438	41.0156	79.3116	41.0156	79.6474	41.0156	79.4882	41.0156	79.9049	41.0156	79.7115	41.0156	80.2108	41.0156	79.9837	41.0156	80.5618	41.0156	80.3042	41.0156	80.9495	41.0156	80.6683	41.0156	81.3606	41.0156	81.0659	41.0156	81.7769	41.0156	81.4822	41.0156	82.177	41.0156	81.8976	41.0156	82.5376	41.0156	82.2896	41.0156	82.8363	41.0156	82.6349	41.0156	83.0534	41.0156	82.9113	41.0156	83.1742	41.0156	83.1008	41.0156	83.1904
43.9453	80.7986	43.9453	80.8245	43.9453	80.801	43.9453	80.8794	43.9453	80.8318	43.9453	80.9648	43.9453	80.8922	43.9453	81.0825	43.9453	80.9836	43.9453	81.2349	43.9453	81.1082	43.9453	81.424	43.9453	81.2682	43.9453	81.6512	43.9453	81.4656	43.9453	81.9162	43.9453	81.7012	43.9453	82.2163	43.9453	81.9744	43.9453	82.5457	43.9453	82.2818	43.9453	82.8946	43.9453	82.6166	43.9453	83.2491	43.9453	82.9684	43.9453	83.592	43.9453	83.3225	43.9453	83.9031	43.9453	83.6608	43.9453	84.1622	43.9453	83.963	43.9453	84.3505	43.9453	84.2088	43.9453	84.4539	43.9453	84.3802	43.9453	84.4641
46.875	81.9888	46.875	82.0162	46.875	81.9897	46.875	82.0721	46.875	82.019	46.875	82.1569	46.875	82.0772	46.875	82.2709	46.875	82.1646	46.875	82.4146	46.875	82.2819	46.875	82.5885	46.875	82.4298	46.875	82.7922	46.875	82.6085	46.875	83.0249	46.875	82.8178	46.875	83.284	46.875	83.0564	46.875	83.565	46.875	83.3215	46.875	83.8606	46.875	83.608	46.875	84.1603	46.875	83.9077	46.875	84.4502	46.875	84.2094	46.875	84.7142	46.875	84.4982	46.875	84.9347	46.875	84.7573	46.875	85.0954	46.875	84.9691	46.875	85.1834	46.875	85.1177	46.875	85.1911
49.8047	82.5771	49.8047	82.6043	49.8047	82.5779	49.8047	82.6591	49.8047	82.6066	49.8047	82.7411	49.8047	82.6632	49.8047	82.8498	49.8047	82.7473	49.8047	82.9843	49.8047	82.8585	49.8047	83.1438	49.8047	82.9962	49.8047	83.327	49.8047	83.1594	49.8047	83.5324	49.8047	83.3469	49.8047	83.7575	49.8047	83.5569	49.8047	83.9984	49.8047	83.7868	49.8047	84.2498	49.8047	84.0322	49.8047	84.5034	49.8047	84.2872	49.8047	84.7485	49.8047	84.5427	49.8047	84.9718	49.8047	84.7873	49.8047	85.1589	49.8047	85.0071	49.8047	85.2956	49.8047	85.1873	49.8047	85.3705	49.8047	85.314	49.8047	85.3769
52.7344	82.8255	52.7344	82.852	52.7344	82.8266	52.7344	82.9055	52.7344	82.8551	52.7344	82.985	52.7344	82.9107	52.7344	83.0892	52.7344	82.9923	52.7344	83.2164	52.7344	83.0987	52.7344	83.3647	52.7344	83.2281	52.7344	83.5321	52.7344	83.3788	52.7344	83.7161	52.7344	83.5486	52.7344	83.9142	52.7344	83.7353	52.7344	84.123	52.7344	83.936	52.7344	84.3379	52.7344	84.1473	52.7344	84.5527	52.7344	84.3642	52.7344	84.7591	52.7344	84.5802	52.7344	84.9467	52.7344	84.7862	52.7344	85.1035	52.7344	84.9713	52.7344	85.2178	52.7344	85.1233	52.7344	85.2801	52.7344	85.2308	52.7344	85.2847
55.6641	82.9229	55.6641	82.9491	55.6641	82.9238	55.6641	83.0016	55.6641	82.9517	55.6641	83.079	55.6641	83.0058	55.6641	83.1795	55.6641	83.0846	55.6641	83.3007	55.6641	83.1864	55.6641	83.4398	55.6641	83.3086	55.6641	83.594	55.6641	83.4487	55.6641	83.7604	55.6641	83.6039	55.6641	83.936	55.6641	83.7714	55.6641	84.1176	55.6641	83.9483	55.6641	84.3015	55.6641	84.1313	55.6641	84.4828	55.6641	84.3165	55.6641	84.6554	55.6641	84.4989	55.6641	84.8111	55.6641	84.6717	55.6641	84.9409	55.6641	84.8265	55.6641	85.0353	55.6641	84.9537	55.6641	85.0863	55.6641	85.0437	55.6641	85.0893
58.5938	83.0074	58.5938	83.0314	58.5938	83.01	58.5938	83.0811	58.5938	83.039	58.5938	83.155	58.5938	83.0934	58.5938	83.2507	58.5938	83.1715	58.5938	83.3652	58.5938	83.2706	58.5938	83.4953	58.5938	83.3879	58.5938	83.6375	58.5938	83.5201	58.5938	83.7884	58.5938	83.6637	58.5938	83.9448	58.5938	83.8155	58.5938	84.1034	58.5938	83.9722	58.5938	84.2612	58.5938	84.1309	58.5938	84.4143	58.5938	84.2882	58.5938	84.5584	58.5938	84.4405	58.5938	84.6875	58.5938	84.5827	58.5938	84.7948	58.5938	84.7088	58.5938	84.873	58.5938	84.8116	58.5938	84.9159	58.5938	84.8839	58.5938	84.9197
61.5234	82.9754	61.5234	82.999	61.5234	82.9775	61.5234	83.0473	61.5234	83.0052	61.5234	83.1186	61.5234	83.0572	61.5234	83.2102	61.5234	83.1317	61.5234	83.3186	61.5234	83.2257	61.5234	83.4402	61.5234	83.3359	61.5234	83.571	61.5234	83.4585	61.5234	83.7071	61.5234	83.5896	61.5234	83.845	61.5234	83.7256	61.5234	83.9815	61.5234	83.8629	61.5234	84.1139	61.5234	83.9987	61.5234	84.2394	61.5234	84.1303	61.5234	84.355	61.5234	84.2547	61.5234	84.4569	61.5234	84.369	61.5234	84.5405	61.5234	84.469	61.5234	84.6008	61.5234	84.55	61.5234	84.6333	61.5234	84.6069	61.5234	84.6355
64.4531	83.0175	64.4531	83.0406	64.4531	83.0186	64.4531	83.087	64.4531	83.0438	64.4531	83.1546	64.4531	83.092	64.4531	83.2406	64.4531	83.1609	64.4531	83.3415	64.4531	83.2477	64.4531	83.4531	64.4531	83.3485	64.4531	83.5711	64.4531	83.4595	64.4531	83.6915	64.4531	83.5764	64.4531	83.8105	64.4531	83.6953	64.4531	83.9249	64.4531	83.8127	64.4531	84.0323	64.4531	83.9256	64.4531	84.1308	64.4531	84.0319	64.4531	84.2187	64.4531	84.1297	64.4531	84.2941	64.4531	84.2175	64.4531	84.3545	64.4531	84.2931	64.4531	84.397	64.4531	84.3538	64.4531	84.4191	64.4531	84.3967	64.4531	84.419
67.3828	83.1013	67.3828	83.1233	67.3828	83.1019	67.3828	83.1668	67.3828	83.1249	67.3828	83.2299	67.3828	83.1691	67.3828	83.3097	67.3828	83.2324	67.3828	83.4023	67.3828	83.3114	67.3828	83.5035	67.3828	83.4026	67.3828	83.6089	67.3828	83.5017	67.3828	83.714	67.3828	83.6044	67.3828	83.8152	67.3828	83.7065	67.3828	83.9091	67.3828	83.8046	67.3828	83.9937	67.3828	83.8958	67.3828	84.0677	67.3828	83.9786	67.3828	84.1307	67.3828	84.0519	67.3828	84.1821	67.3828	84.1154	67.3828	84.2216	67.3828	84.1688	67.3828	84.248	67.3828	84.2113	67.3828	84.2605	67.3828	84.2416	67.3828	84.2583
70.3125	83.169	70.3125	83.1831	70.3125	83.177	70.3125	83.2184	70.3125	83.2066	70.3125	83.2731	70.3125	83.2565	70.3125	83.3443	70.3125	83.3244	70.3125	83.4283	70.3125	83.4069	70.3125	83.5209	70.3125	83.5	70.3125	83.6176	70.3125	83.5992	70.3125	83.7138	70.3125	83.7	70.3125	83.8055	70.3125	83.7977	70.3125	83.8895	70.3125	83.8885	70.3125	83.9636	70.3125	83.9693	70.3125	84.0269	70.3125	84.038	70.3125	84.0795	70.3125	84.094	70.3125	84.1221	70.3125	84.1374	70.3125	84.1556	70.3125	84.1692	70.3125	84.1804	70.3125	84.1905	70.3125	84.1966	70.3125	84.2019	70.3125	84.2038
73.2422	83.2651	73.2422	83.2794	73.2422	83.2732	73.2422	83.3151	73.2422	83.3033	73.2422	83.3703	73.2422	83.3541	73.2422	83.442	73.2422	83.423	73.2422	83.5262	73.2422	83.5066	73.2422	83.6186	73.2422	83.6006	73.2422	83.7141	73.2422	83.7	73.2422	83.8079	73.2422	83.7999	73.2422	83.8957	73.2422	83.8952	73.2422	83.974	73.2422	83.9815	73.2422	84.0404	73.2422	84.0555	73.2422	84.094	73.2422	84.1152	73.2422	84.1355	73.2422	84.16	73.2422	84.1663	73.2422	84.1911	73.2422	84.1887	73.2422	84.2104	73.2422	84.2046	73.2422	84.2206	73.2422	84.2153	73.2422	84.2238	73.2422	84.2218
76.1719	83.4366	76.1719	83.4537	76.1719	83.4406	76.1719	83.4907	76.1719	83.4655	76.1719	83.5458	76.1719	83.5101	76.1719	83.6156	76.1719	83.5721	76.1719	83.6963	76.1719	83.6479	76.1719	83.7833	76.1719	83.7335	76.1719	83.8715	76.1719	83.824	76.1719	83.9559	76.1719	83.914	76.1719	84.032	76.1719	83.9986	76.1719	84.0961	76.1719	84.0731	76.1719	84.1461	76.1719	84.1341	76.1719	84.1814	76.1719	84.1796	76.1719	84.2033	76.1719	84.2095	76.1719	84.2146	76.1719	84.2257	76.1719	84.219	76.1719	84.2313	76.1719	84.22	76.1719	84.2303	76.1719	84.2208	76.1719	84.2265	76.1719	84.2229
79.1016	83.4709	79.1016	83.4891	79.1016	83.4747	79.1016	83.5282	79.1016	83.5002	79.1016	83.586	79.1016	83.5464	79.1016	83.6596	79.1016	83.6108	79.1016	83.7446	79.1016	83.69	79.1016	83.8365	79.1016	83.7798	79.1016	83.9299	79.1016	83.875	79.1016	84.0195	79.1016	83.9702	79.1016	84.1003	79.1016	84.0599	79.1016	84.1683	79.1016	84.1391	79.1016	84.2211	79.1016	84.2039	79.1016	84.2579	79.1016	84.2522	79.1016	84.2798	79.1016	84.2835	79.1016	84.2899	79.1016	84.2997	79.1016	84.2923	79.1016	84.3042	79.1016	84.2913	79.1016	84.3017	79.1016	84.2906	79.1016	84.2965	79.1016	84.2922
82.0313	83.7521	82.0313	83.7754	82.0313	83.747	82.0313	83.8158	82.0313	83.7602	82.0313	83.8711	82.0313	83.791	82.0313	83.9384	82.0313	83.8374	82.0313	84.0137	82.0313	83.8967	82.0313	84.0925	82.0313	83.965	82.0313	84.1697	82.0313	84.0377	82.0313	84.2402	82.0313	84.1098	82.0313	84.299	82.0313	84.1761	82.0313	84.3422	82.0313	84.2318	82.0313	84.3677	82.0313	84.2732	82.0313	84.3749	82.0313	84.2984	82.0313	84.3661	82.0313	84.3078	82.0313	84.3456	82.0313	84.3038	82.0313	84.3192	82.0313	84.2916	82.0313	84.2935	82.0313	84.2771	82.0313	84.2742	82.0313	84.2667	82.0313	84.2649
84.9609	84.063	84.9609	84.0914	84.9609	84.0475	84.9609	84.1316	84.9609	84.0453	84.9609	84.1815	84.9609	84.0556	84.9609	84.2381	84.9609	84.0769	84.9609	84.2974	84.9609	84.1065	84.9609	84.3548	84.9609	84.141	84.9609	84.4052	84.9609	84.1764	84.9609	84.4434	84.9609	84.2081	84.9609	84.4647	84.9609	84.2315	84.9609	84.4654	84.9609	84.2426	84.9609	84.4438	84.9609	84.2388	84.9609	84.4006	84.9609	84.2194	84.9609	84.3396	84.9609	84.1863	84.9609	84.2674	84.9609	84.1445	84.9609	84.193	84.9609	84.1012	84.9609	84.1261	84.9609	84.0655	84.9609	84.0759	84.9609	84.0457	84.9609	84.0484
87.8906	83.902	87.8906	83.9177	87.8906	83.9055	87.8906	83.9518	87.8906	83.9278	87.8906	84.0025	87.8906	83.9675	87.8906	84.0665	87.8906	84.0217	87.8906	84.1396	87.8906	84.0871	87.8906	84.2166	87.8906	84.1589	87.8906	84.2919	87.8906	84.2319	87.8906	84.3593	87.8906	84.3006	87.8906	84.4133	87.8906	84.3595	87.8906	84.4496	87.8906	84.4038	87.8906	84.4656	87.8906	84.4301	87.8906	84.4613	87.8906	84.4372	87.8906	84.4394	87.8906	84.4262	87.8906	84.4057	87.8906	84.4013	87.8906	84.3676	87.8906	84.3689	87.8906	84.3334	87.8906	84.3369	87.8906	84.3104	87.8906	84.3131	87.8906	84.3033
90.8203	83.8297	90.8203	83.8405	90.8203	83.8403	90.8203	83.872	90.8203	83.872	90.8203	83.9225	90.8203	83.9234	90.8203	83.9891	90.8203	83.9923	90.8203	84.0679	90.8203	84.075	90.8203	84.1539	90.8203	84.1669	90.8203	84.2415	90.8203	84.2625	90.8203	84.3244	90.8203	84.3557	90.8203	84.3968	90.8203	84.44	90.8203	84.4538	90.8203	84.5098	90.8203	84.4923	90.8203	84.5602	90.8203	84.5113	90.8203	84.5887	90.8203	84.5131	90.8203	84.5952	90.8203	84.5025	90.8203	84.5826	90.8203	84.4865	90.8203	84.5567	90.8203	84.4727	90.8203	84.5251	90.8203	84.4677	90.8203	84.4957	90.8203	84.4753
93.75	84.3053	93.75	84.3213	93.75	84.3033	93.75	84.3502	93.75	84.3157	93.75	84.3906	93.75	84.3423	93.75	84.4401	93.75	84.3819	93.75	84.4955	93.75	84.4325	93.75	84.5531	93.75	84.4909	93.75	84.6081	93.75	84.5529	93.75	84.6558	93.75	84.6134	93.75	84.6913	93.75	84.6667	93.75	84.7107	93.75	84.7074	93.75	84.7118	93.75	84.7307	93.75	84.6947	93.75	84.7341	93.75	84.6624	93.75	84.7174	93.75	84.6211	93.75	84.6837	93.75	84.5791	93.75	84.6392	93.75	84.5453	93.75	84.5928	93.75	84.5277	93.75	84.5539	93.75	84.5306
96.6797	84.451	96.6797	84.4777	96.6797	84.4352	96.6797	84.5146	96.6797	84.4305	96.6797	84.56	96.6797	84.4363	96.6797	84.6112	96.6797	84.451	96.6797	84.6647	96.6797	84.4725	96.6797	84.7158	96.6797	84.4975	96.6797	84.7592	96.6797	84.522	96.6797	84.7891	96.6797	84.5415	96.6797	84.8	96.6797	84.5512	96.6797	84.7875	96.6797	84.547	96.6797	84.7493	96.6797	84.5258	96.6797	84.686	96.6797	84.4869	96.6797	84.6017	96.6797	84.4327	96.6797	84.5045	96.6797	84.369	96.6797	84.4057	96.6797	84.305	96.6797	84.3181	96.6797	84.2518	96.6797	84.2534	96.6797	84.2207	96.6797	84.2201
102.539	84.6889	102.539	84.7	102.539	84.6887	102.539	84.7215	102.539	84.6993	102.539	84.7523	102.539	84.7199	102.539	84.7904	102.539	84.7492	102.539	84.8329	102.539	84.7848	102.539	84.8757	102.539	84.8235	102.539	84.9139	102.539	84.8612	102.539	84.942	102.539	84.8929	102.539	84.9546	102.539	84.9133	102.539	84.9471	102.539	84.9175	102.539	84.9171	102.539	84.9019	102.539	84.8651	102.539	84.8651	102.539	84.7952	102.539	84.8088	102.539	84.7153	102.539	84.7384	102.539	84.6365	102.539	84.663	102.539	84.571	102.539	84.594	102.539	84.5298	102.539	84.5431	102.539	84.5201
105.469	84.8227	105.469	84.8309	105.469	84.8247	105.469	84.8488	105.469	84.8369	105.469	84.8755	105.469	84.8587	105.469	84.9089	105.469	84.8887	105.469	84.9463	105.469	84.9249	105.469	84.9839	105.469	84.964	105.469	85.0169	105.469	85.0019	105.469	85.04	105.469	85.0334	105.469	85.048	105.469	85.0532	105.469	85.0366	105.469	85.0561	105.469	85.0035	105.469	85.0384	105.469	84.9495	105.469	84.9984	105.469	84.8787	105.469	84.9379	105.469	84.7992	105.469	84.8624	105.469	84.7222	105.469	84.781	105.469	84.6598	105.469	84.7054	105.469	84.623	105.469	84.648	105.469	84.6188
108.398	84.9804	108.398	84.9952	108.398	84.9747	108.398	85.0185	108.398	84.9782	108.398	85.0491	108.398	84.9907	108.398	85.0853	108.398	85.0113	108.398	85.1244	108.398	85.0384	108.398	85.1627	108.398	85.0693	108.398	85.1955	108.398	85.1002	108.398	85.2177	108.398	85.1261	108.398	85.2239	108.398	85.1418	108.398	85.2097	108.398	85.1423	108.398	85.1728	108.398	85.1236	108.398	85.1138	108.398	85.084	108.398	85.0368	108.398	85.0252	108.398	84.9499	108.398	84.9526	108.398	84.8643	108.398	84.8755	108.398	84.7929	108.398	84.8055	108.398	84.7469	108.398	84.755	108.398	84.7338
