"SPL Vertical"																																																																							
"On-Axis"		"10°"		"-10°"		"20°"		"-20°"		"30°"		"-30°"		"40°"		"-40°"		"50°"		"-50°"		"60°"		"-60°"		"70°"		"-70°"		"80°"		"-80°"		"90°"		"-90°"		"100°"		"-100°"		"110°"		"-110°"		"120°"		"-120°"		"130°"		"-130°"		"140°"		"-140°"		"150°"		"-150°"		"160°"		"-160°"		"170°"		"-170°"		"180°"	
"Frequency [Hz]"	"Sound Pessure Level [dB]  / [2.83V 1m] "	"Frequency [Hz]"	"Sound Pessure Level [dB]  / [2.83V 1m] "	"Frequency [Hz]"	"Sound Pessure Level [dB]  / [2.83V 1m] "	"Frequency [Hz]"	"Sound Pessure Level [dB]  / [2.83V 1m] "	"Frequency [Hz]"	"Sound Pessure Level [dB]  / [2.83V 1m] "	"Frequency [Hz]"	"Sound Pessure Level [dB]  / [2.83V 1m] "	"Frequency [Hz]"	"Sound Pessure Level [dB]  / [2.83V 1m] "	"Frequency [Hz]"	"Sound Pessure Level [dB]  / [2.83V 1m] "	"Frequency [Hz]"	"Sound Pessure Level [dB]  / [2.83V 1m] "	"Frequency [Hz]"	"Sound Pessure Level [dB]  / [2.83V 1m] "	"Frequency [Hz]"	"Sound Pessure Level [dB]  / [2.83V 1m] "	"Frequency [Hz]"	"Sound Pessure Level [dB]  / [2.83V 1m] "	"Frequency [Hz]"	"Sound Pessure Level [dB]  / [2.83V 1m] "	"Frequency [Hz]"	"Sound Pessure Level [dB]  / [2.83V 1m] "	"Frequency [Hz]"	"Sound Pessure Level [dB]  / [2.83V 1m] "	"Frequency [Hz]"	"Sound Pessure Level [dB]  / [2.83V 1m] "	"Frequency [Hz]"	"Sound Pessure Level [dB]  / [2.83V 1m] "	"Frequency [Hz]"	"Sound Pessure Level [dB]  / [2.83V 1m] "	"Frequency [Hz]"	"Sound Pessure Level [dB]  / [2.83V 1m] "	"Frequency [Hz]"	"Sound Pessure Level [dB]  / [2.83V 1m] "	"Frequency [Hz]"	"Sound Pessure Level [dB]  / [2.83V 1m] "	"Frequency [Hz]"	"Sound Pessure Level [dB]  / [2.83V 1m] "	"Frequency [Hz]"	"Sound Pessure Level [dB]  / [2.83V 1m] "	"Frequency [Hz]"	"Sound Pessure Level [dB]  / [2.83V 1m] "	"Frequency [Hz]"	"Sound Pessure Level [dB]  / [2.83V 1m] "	"Frequency [Hz]"	"Sound Pessure Level [dB]  / [2.83V 1m] "	"Frequency [Hz]"	"Sound Pessure Level [dB]  / [2.83V 1m] "	"Frequency [Hz]"	"Sound Pessure Level [dB]  / [2.83V 1m] "	"Frequency [Hz]"	"Sound Pessure Level [dB]  / [2.83V 1m] "	"Frequency [Hz]"	"Sound Pessure Level [dB]  / [2.83V 1m] "	"Frequency [Hz]"	"Sound Pessure Level [dB]  / [2.83V 1m] "	"Frequency [Hz]"	"Sound Pessure Level [dB]  / [2.83V 1m] "	"Frequency [Hz]"	"Sound Pessure Level [dB]  / [2.83V 1m] "	"Frequency [Hz]"	"Sound Pessure Level [dB]  / [2.83V 1m] "	"Frequency [Hz]"	"Sound Pessure Level [dB]  / [2.83V 1m] "	"Frequency [Hz]"	"Sound Pessure Level [dB]  / [2.83V 1m] "
20.5078	57.0692	20.5078	56.9508	20.5078	57.2067	20.5078	56.8541	20.5078	57.36	20.5078	56.7803	20.5078	57.5248	20.5078	56.7301	20.5078	57.696	20.5078	56.7032	20.5078	57.8681	20.5078	56.6989	20.5078	58.0353	20.5078	56.7159	20.5078	58.1915	20.5078	56.7532	20.5078	58.3305	20.5078	56.8095	20.5078	58.4463	20.5078	56.8838	20.5078	58.5333	20.5078	56.9752	20.5078	58.5867	20.5078	57.0831	20.5078	58.6031	20.5078	57.2068	20.5078	58.5809	20.5078	57.3451	20.5078	58.5207	20.5078	57.4963	20.5078	58.4257	20.5078	57.6578	20.5078	58.3013	20.5078	57.8253	20.5078	58.1545	20.5078	57.9932
21.2402	53.1973	21.2402	52.6015	21.2402	53.7731	21.2402	52.0042	21.2402	54.3127	21.2402	51.4263	21.2402	54.8024	21.2402	50.8903	21.2402	55.2305	21.2402	50.4194	21.2402	55.5871	21.2402	50.035	21.2402	55.8644	21.2402	49.7548	21.2402	56.0562	21.2402	49.5901	21.2402	56.1584	21.2402	49.5454	21.2402	56.1693	21.2402	49.6179	21.2402	56.0891	21.2402	49.7991	21.2402	55.9208	21.2402	50.0767	21.2402	55.6694	21.2402	50.4361	21.2402	55.3423	21.2402	50.8624	21.2402	54.9487	21.2402	51.3404	21.2402	54.4995	21.2402	51.8555	21.2402	54.0065	21.2402	52.3934	21.2402	53.4824	21.2402	52.9402
21.9727	49.6316	21.9727	48.8091	21.9727	50.3902	21.9727	47.9414	21.9727	51.07	21.9727	47.0531	21.9727	51.6596	21.9727	46.175	21.9727	52.1497	21.9727	45.3447	21.9727	52.5329	21.9727	44.6047	21.9727	52.8036	21.9727	43.9979	21.9727	52.9578	21.9727	43.5619	21.9727	52.9937	21.9727	43.322	21.9727	52.9112	21.9727	43.2875	21.9727	52.7129	21.9727	43.452	21.9727	52.4037	21.9727	43.7963	21.9727	51.9907	21.9727	44.2926	21.9727	51.4835	21.9727	44.9088	21.9727	50.8931	21.9727	45.6124	21.9727	50.2322	21.9727	46.3732	21.9727	49.5141	21.9727	47.1648	21.9727	48.7531	21.9727	47.9644
22.7051	48.3973	22.7051	47.3577	22.7051	49.3222	22.7051	46.2131	22.7051	50.126	22.7051	44.9785	22.7051	50.8037	22.7051	43.679	22.7051	51.3511	22.7051	42.3546	22.7051	51.7641	22.7051	41.0665	22.7051	52.0392	22.7051	39.8987	22.7051	52.1734	22.7051	38.9491	22.7051	52.1648	22.7051	38.307	22.7051	52.0125	22.7051	38.0267	22.7051	51.7173	22.7051	38.1167	22.7051	51.282	22.7051	38.5488	22.7051	50.7113	22.7051	39.2718	22.7051	50.0121	22.7051	40.2209	22.7051	49.1931	22.7051	41.3257	22.7051	48.2649	22.7051	42.519	22.7051	47.2398	22.7051	43.7446	22.7051	46.1321	22.7051	44.9594
23.4375	47.3196	23.4375	46.155	23.4375	48.3418	23.4375	44.853	23.4375	49.2186	23.4375	43.4237	23.4375	49.9479	23.4375	41.8867	23.4375	50.5271	23.4375	40.2781	23.4375	50.9537	23.4375	38.657	23.4375	51.2245	23.4375	37.1072	23.4375	51.3363	23.4375	35.7256	23.4375	51.2863	23.4375	34.597	23.4375	51.0719	23.4375	33.7817	23.4375	50.692	23.4375	33.3431	23.4375	50.1464	23.4375	33.3837	23.4375	49.4364	23.4375	34.0037	23.4375	48.5648	23.4375	35.1829	23.4375	47.5358	23.4375	36.7504	23.4375	46.3545	23.4375	38.4954	23.4375	45.0267	23.4375	40.2627	23.4375	43.56	23.4375	41.9652
24.1699	48.5957	24.1699	47.4868	24.1699	49.59	24.1699	46.2841	24.1699	50.4573	24.1699	45.0212	24.1699	51.1894	24.1699	43.7505	24.1699	51.7808	24.1699	42.5434	24.1699	52.2265	24.1699	41.4794	24.1699	52.5225	24.1699	40.6191	24.1699	52.665	24.1699	39.9752	24.1699	52.6507	24.1699	39.5104	24.1699	52.4768	24.1699	39.1685	24.1699	52.1417	24.1699	38.9173	24.1699	51.6447	24.1699	38.779	24.1699	50.9867	24.1699	38.8409	24.1699	50.1698	24.1699	39.2244	24.1699	49.1982	24.1699	40.0067	24.1699	48.0788	24.1699	41.1512	24.1699	46.8228	24.1699	42.529	24.1699	45.4503	24.1699	43.9974
25.6348	52.8589	25.6348	52.2619	25.6348	53.4468	25.6348	51.6836	25.6348	53.9998	25.6348	51.1507	25.6348	54.4951	25.6348	50.6845	25.6348	54.914	25.6348	50.2976	25.6348	55.2414	25.6348	49.9917	25.6348	55.4655	25.6348	49.7593	25.6348	55.5778	25.6348	49.5875	25.6348	55.573	25.6348	49.4629	25.6348	55.449	25.6348	49.3757	25.6348	55.2076	25.6348	49.3224	25.6348	54.8543	25.6348	49.3072	25.6348	54.3998	25.6348	49.3409	25.6348	53.8594	25.6348	49.4397	25.6348	53.2544	25.6348	49.6212	25.6348	52.6111	25.6348	49.9002	25.6348	51.9604	25.6348	50.2839	25.6348	51.3352	25.6348	50.7677
26.3672	54.099	26.3672	53.5621	26.3672	54.6371	26.3672	53.0531	26.3672	55.1508	26.3672	52.5958	26.3672	55.6173	26.3672	52.2082	26.3672	56.017	26.3672	51.8989	26.3672	56.3345	26.3672	51.6662	26.3672	56.5575	26.3672	51.5005	26.3672	56.6776	26.3672	51.3879	26.3672	56.6894	26.3672	51.3148	26.3672	56.5913	26.3672	51.2713	26.3672	56.3854	26.3672	51.253	26.3672	56.0779	26.3672	51.2627	26.3672	55.6796	26.3672	51.3088	26.3672	55.206	26.3672	51.4047	26.3672	54.6776	26.3672	51.5657	26.3672	54.1189	26.3672	51.8051	26.3672	53.5578	26.3672	52.1304	26.3672	53.0228	26.3672	52.5402
27.0996	56.152	27.0996	55.7552	27.0996	56.5622	27.0996	55.3899	27.0996	56.9655	27.0996	55.0705	27.0996	57.3421	27.0996	54.8053	27.0996	57.6736	27.0996	54.5965	27.0996	57.9444	27.0996	54.4405	27.0996	58.1418	27.0996	54.3301	27.0996	58.2569	27.0996	54.2571	27.0996	58.284	27.0996	54.2142	27.0996	58.2218	27.0996	54.1966	27.0996	58.0729	27.0996	54.2028	27.0996	57.8439	27.0996	54.2349	27.0996	57.546	27.0996	54.2975	27.0996	57.194	27.0996	54.3969	27.0996	56.8058	27.0996	54.5402	27.0996	56.401	27.0996	54.7329	27.0996	55.9995	27.0996	54.9782	27.0996	55.6194	27.0996	55.2755
27.832	56.8298	27.832	56.5217	27.832	57.1651	27.832	56.2567	27.832	57.5076	27.832	56.0452	27.832	57.836	27.832	55.8899	27.832	58.1301	27.832	55.7869	27.832	58.3722	27.832	55.7272	27.832	58.5478	27.832	55.6993	27.832	58.6464	27.832	55.6917	27.832	58.6619	27.832	55.6948	27.832	58.5927	27.832	55.7018	27.832	58.4425	27.832	55.7096	27.832	58.2199	27.832	55.7184	27.832	57.9388	27.832	55.7316	27.832	57.6178	27.832	55.7559	27.832	57.2786	27.832	55.7999	27.832	56.9441	27.832	55.874	27.832	56.6352	27.832	55.9885	27.832	56.3679	27.832	56.1517
29.2969	59.2194	29.2969	58.909	29.2969	59.5434	29.2969	58.6255	29.2969	59.8652	29.2969	58.3787	29.2969	60.1681	29.2969	58.1736	29.2969	60.4359	29.2969	58.0107	29.2969	60.6541	29.2969	57.8866	29.2969	60.8106	29.2969	57.7955	29.2969	60.8961	29.2969	57.731	29.2969	60.905	29.2969	57.6871	29.2969	60.8353	29.2969	57.6599	29.2969	60.6893	29.2969	57.6474	29.2969	60.4739	29.2969	57.6506	29.2969	60.2001	29.2969	57.673	29.2969	59.8831	29.2969	57.7202	29.2969	59.541	29.2969	57.7994	29.2969	59.1936	29.2969	57.9178	29.2969	58.8599	29.2969	58.0818	29.2969	58.5565	29.2969	58.295
30.0293	60.4191	30.0293	60.1132	30.0293	60.7367	30.0293	59.8317	30.0293	61.0514	30.0293	59.5839	30.0293	61.3474	30.0293	59.3747	30.0293	61.6095	30.0293	59.2051	30.0293	61.8238	30.0293	59.0725	30.0293	61.9787	30.0293	58.972	30.0293	62.0652	30.0293	58.8981	30.0293	62.0776	30.0293	58.8457	30.0293	62.0139	30.0293	58.8117	30.0293	61.8758	30.0293	58.7948	30.0293	61.6695	30.0293	58.7967	30.0293	61.405	30.0293	58.8213	30.0293	61.0963	30.0293	58.8743	30.0293	60.76	30.0293	58.9627	30.0293	60.4148	30.0293	59.0931	30.0293	60.0788	30.0293	59.2705	30.0293	59.7685	30.0293	59.4965
31.4941	63.2567	31.4941	63.0341	31.4941	63.4925	31.4941	62.8331	31.4941	63.731	31.4941	62.6593	31.4941	63.9601	31.4941	62.5151	31.4941	64.1676	31.4941	62.4005	31.4941	64.3417	31.4941	62.3132	31.4941	64.4723	31.4941	62.2501	31.4941	64.5515	31.4941	62.2075	31.4941	64.5742	31.4941	62.1824	31.4941	64.5386	31.4941	62.1727	31.4941	64.4464	31.4941	62.1777	31.4941	64.303	31.4941	62.1981	31.4941	64.1171	31.4941	62.2356	31.4941	63.8999	31.4941	62.293	31.4941	63.6643	31.4941	62.3735	31.4941	63.4235	31.4941	62.4802	31.4941	63.1897	31.4941	62.6154	31.4941	62.9729	31.4941	62.7801
32.2266	63.9282	32.2266	63.697	32.2266	64.17	32.2266	63.4852	32.2266	64.4114	32.2266	63.299	32.2266	64.6407	32.2266	63.1416	32.2266	64.8454	32.2266	63.0136	32.2266	65.014	32.2266	62.9134	32.2266	65.1367	32.2266	62.8382	32.2266	65.2057	32.2266	62.7844	32.2266	65.216	32.2266	62.7492	32.2266	65.1663	32.2266	62.7303	32.2266	65.0585	32.2266	62.7268	32.2266	64.8985	32.2266	62.7392	32.2266	64.6955	32.2266	62.7692	32.2266	64.4616	32.2266	62.8196	32.2266	64.2105	32.2266	62.894	32.2266	63.9564	32.2266	62.9959	32.2266	63.7124	32.2266	63.1283	32.2266	63.4887	32.2266	63.2928
33.6914	66.3755	33.6914	66.1724	33.6914	66.5867	33.6914	65.9842	33.6914	66.7974	33.6914	65.816	33.6914	66.9979	33.6914	65.6706	33.6914	67.1781	33.6914	65.549	33.6914	67.3283	33.6914	65.4508	33.6914	67.44	33.6914	65.3746	33.6914	67.5062	33.6914	65.3188	33.6914	67.5225	33.6914	65.2817	33.6914	67.4871	33.6914	65.2626	33.6914	67.4013	33.6914	65.2611	33.6914	67.2696	33.6914	65.2779	33.6914	67.0994	33.6914	65.3143	33.6914	66.9005	33.6914	65.3723	33.6914	66.6839	33.6914	65.4538	33.6914	66.4611	33.6914	65.5607	33.6914	66.243	33.6914	65.6942	33.6914	66.0384	33.6914	65.854
34.4238	67.4119	34.4238	67.2236	34.4238	67.6079	34.4238	67.0494	34.4238	67.8038	34.4238	66.8938	34.4238	67.9905	34.4238	66.7596	34.4238	68.1586	34.4238	66.6478	34.4238	68.2992	34.4238	66.5579	34.4238	68.404	34.4238	66.4889	34.4238	68.4667	34.4238	66.4392	34.4238	68.4829	34.4238	66.4074	34.4238	68.451	34.4238	66.3927	34.4238	68.3726	34.4238	66.3946	34.4238	68.2517	34.4238	66.4135	34.4238	68.0956	34.4238	66.4505	34.4238	67.9131	34.4238	66.507	34.4238	67.7148	34.4238	66.5845	34.4238	67.5111	34.4238	66.6847	34.4238	67.3117	34.4238	66.8085	34.4238	67.1246	34.4238	66.9556
35.8887	69.2727	35.8887	69.106	35.8887	69.4453	35.8887	68.9508	35.8887	69.6169	35.8887	68.8111	35.8887	69.7797	35.8887	68.6892	35.8887	69.9253	35.8887	68.5863	35.8887	70.0457	35.8887	68.5021	35.8887	70.1336	35.8887	68.4361	35.8887	70.1831	35.8887	68.3871	35.8887	70.1906	35.8887	68.3541	35.8887	70.1548	35.8887	68.3363	35.8887	70.0773	35.8887	68.3337	35.8887	69.9623	35.8887	68.3463	35.8887	69.8169	35.8887	68.375	35.8887	69.6495	35.8887	68.421	35.8887	69.47	35.8887	68.4855	35.8887	69.2878	35.8887	68.5699	35.8887	69.1115	35.8887	68.6752	35.8887	68.9478	35.8887	68.8015
37.3535	71.0016	37.3535	70.8462	37.3535	71.1613	37.3535	70.7002	37.3535	71.3192	37.3535	70.5672	37.3535	71.4681	37.3535	70.4497	37.3535	71.6005	37.3535	70.3489	37.3535	71.709	37.3535	70.2648	37.3535	71.7869	37.3535	70.1973	37.3535	71.8289	37.3535	70.1455	37.3535	71.8317	37.3535	70.1089	37.3535	71.794	37.3535	70.0871	37.3535	71.7173	37.3535	70.0798	37.3535	71.6059	37.3535	70.0875	37.3535	71.4661	37.3535	70.1109	37.3535	71.3061	37.3535	70.1511	37.3535	71.1351	37.3535	70.2094	37.3535	70.962	37.3535	70.287	37.3535	70.7951	37.3535	70.3848	37.3535	70.6406	37.3535	70.503
38.8184	72.6594	38.8184	72.517	38.8184	72.8047	38.8184	72.3823	38.8184	72.9475	38.8184	72.2588	38.8184	73.0812	38.8184	72.1487	38.8184	73.1991	38.8184	72.0535	38.8184	73.2948	38.8184	71.9737	38.8184	73.3622	38.8184	71.9093	38.8184	73.3967	38.8184	71.86	38.8184	73.3955	38.8184	71.8254	38.8184	73.3578	38.8184	71.8052	38.8184	73.2855	38.8184	71.7993	38.8184	73.1824	38.8184	71.808	38.8184	73.0549	38.8184	71.8314	38.8184	72.9103	38.8184	71.8704	38.8184	72.7569	38.8184	71.9255	38.8184	72.6026	38.8184	71.9974	38.8184	72.454	38.8184	72.0867	38.8184	72.3164	38.8184	72.1933
39.5508	73.4236	39.5508	73.2843	39.5508	73.5647	39.5508	73.1515	39.5508	73.7022	39.5508	73.0286	39.5508	73.8299	39.5508	72.9182	39.5508	73.9414	39.5508	72.8217	39.5508	74.0304	39.5508	72.7399	39.5508	74.0912	39.5508	72.673	39.5508	74.1196	39.5508	72.621	39.5508	74.1128	39.5508	72.5834	39.5508	74.0704	39.5508	72.5602	39.5508	73.9942	39.5508	72.5511	39.5508	73.8885	39.5508	72.5563	39.5508	73.7596	39.5508	72.576	39.5508	73.6149	39.5508	72.6109	39.5508	73.4628	39.5508	72.6616	39.5508	73.3108	39.5508	72.7287	39.5508	73.1657	39.5508	72.8129	39.5508	73.0325	39.5508	72.9143
41.0156	75.0023	41.0156	74.872	41.0156	75.1332	41.0156	74.7464	41.0156	75.2598	41.0156	74.6289	41.0156	75.3766	41.0156	74.5219	41.0156	75.4779	41.0156	74.4269	41.0156	75.5581	41.0156	74.3452	41.0156	75.6122	41.0156	74.2772	41.0156	75.6363	41.0156	74.2231	41.0156	75.6281	41.0156	74.1831	41.0156	75.5873	41.0156	74.1574	41.0156	75.5154	41.0156	74.1459	41.0156	75.4165	41.0156	74.1491	41.0156	75.2959	41.0156	74.1672	41.0156	75.1606	41.0156	74.2008	41.0156	75.018	41.0156	74.2502	41.0156	74.8748	41.0156	74.3158	41.0156	74.7373	41.0156	74.398	41.0156	74.6101	41.0156	74.4964
42.4805	76.2497	42.4805	76.1287	42.4805	76.3698	42.4805	76.0109	42.4805	76.4846	42.4805	75.8995	42.4805	76.589	42.4805	75.797	42.4805	76.6777	42.4805	75.7052	42.4805	76.7457	42.4805	75.6254	42.4805	76.7887	42.4805	75.5584	42.4805	76.8033	42.4805	75.5046	42.4805	76.7876	42.4805	75.4643	42.4805	76.7419	42.4805	75.4377	42.4805	76.6681	42.4805	75.4247	42.4805	76.5703	42.4805	75.4255	42.4805	76.4542	42.4805	75.4401	42.4805	76.3266	42.4805	75.4687	42.4805	76.1943	42.4805	75.5114	42.4805	76.0636	42.4805	75.5685	42.4805	75.9398	42.4805	75.6401	42.4805	75.8265	42.4805	75.7263
43.9453	77.4413	43.9453	77.325	43.9453	77.5555	43.9453	77.2103	43.9453	77.6633	43.9453	77.1004	43.9453	77.7601	43.9453	76.998	43.9453	77.8412	43.9453	76.9051	43.9453	77.9021	43.9453	76.8232	43.9453	77.9389	43.9453	76.7536	43.9453	77.9488	43.9453	76.697	43.9453	77.9301	43.9453	76.654	43.9453	77.8832	43.9453	76.6249	43.9453	77.8102	43.9453	76.6099	43.9453	77.715	43.9453	76.6091	43.9453	77.6028	43.9453	76.6225	43.9453	77.48	43.9453	76.6501	43.9453	77.3529	43.9453	76.6919	43.9453	77.2274	43.9453	76.7478	43.9453	77.1082	43.9453	76.8178	43.9453	76.9989	43.9453	76.9017
45.4102	78.4212	45.4102	78.3143	45.4102	78.5248	45.4102	78.2074	45.4102	78.6212	45.4102	78.1037	45.4102	78.7062	45.4102	78.0057	45.4102	78.7757	45.4102	77.9153	45.4102	78.8257	45.4102	77.8344	45.4102	78.8529	45.4102	77.7641	45.4102	78.8548	45.4102	77.7055	45.4102	78.8304	45.4102	77.6593	45.4102	78.7803	45.4102	77.6262	45.4102	78.7065	45.4102	77.6065	45.4102	78.6131	45.4102	77.6004	45.4102	78.5052	45.4102	77.6081	45.4102	78.3885	45.4102	77.6296	45.4102	78.2691	45.4102	77.6649	45.4102	78.152	45.4102	77.7139	45.4102	78.0417	45.4102	77.7765	45.4102	77.9412	45.4102	77.8524
47.6074	79.5744	47.6074	79.4775	47.6074	79.667	47.6074	79.3794	47.6074	79.7518	47.6074	79.2832	47.6074	79.825	47.6074	79.1913	47.6074	79.8831	47.6074	79.1058	47.6074	79.9228	47.6074	79.0287	47.6074	79.9413	47.6074	78.9614	47.6074	79.9369	47.6074	78.9051	47.6074	79.909	47.6074	78.8606	47.6074	79.8586	47.6074	78.8286	47.6074	79.7879	47.6074	78.8095	47.6074	79.701	47.6074	78.8033	47.6074	79.6025	47.6074	78.81	47.6074	79.4977	47.6074	78.8294	47.6074	79.3917	47.6074	78.8611	47.6074	79.2888	47.6074	78.9049	47.6074	79.1923	47.6074	78.9603	47.6074	79.1046	47.6074	79.027
49.0723	80.1069	49.0723	80.0155	49.0723	80.1929	49.0723	79.9219	49.0723	80.2703	49.0723	79.8289	49.0723	80.3355	49.0723	79.7392	49.0723	80.3855	49.0723	79.6551	49.0723	80.4173	49.0723	79.5786	49.0723	80.4286	49.0723	79.5113	49.0723	80.418	49.0723	79.4546	49.0723	80.3856	49.0723	79.4096	49.0723	80.3325	49.0723	79.3768	49.0723	80.2615	49.0723	79.3567	49.0723	80.1763	49.0723	79.3494	49.0723	80.0817	49.0723	79.3545	49.0723	79.9828	49.0723	79.3717	49.0723	79.8839	49.0723	79.4004	49.0723	79.7891	49.0723	79.4402	49.0723	79.701	49.0723	79.4905	49.0723	79.6213	49.0723	79.5509
50.5371	80.492	50.5371	80.4059	50.5371	80.5716	50.5371	80.3162	50.5371	80.6417	50.5371	80.2259	50.5371	80.699	50.5371	80.1374	50.5371	80.7408	50.5371	80.0532	50.5371	80.7644	50.5371	79.9755	50.5371	80.7681	50.5371	79.9059	50.5371	80.7509	50.5371	79.8462	50.5371	80.7128	50.5371	79.7975	50.5371	80.6556	50.5371	79.7606	50.5371	80.5819	50.5371	79.7361	50.5371	80.4958	50.5371	79.724	50.5371	80.4019	50.5371	79.7243	50.5371	80.305	50.5371	79.7366	50.5371	80.2094	50.5371	79.7604	50.5371	80.1187	50.5371	79.7951	50.5371	80.0353	50.5371	79.8402	50.5371	79.9606	50.5371	79.8955
52.7344	80.8727	52.7344	80.7949	52.7344	80.9433	52.7344	80.7127	52.7344	81.0038	52.7344	80.6287	52.7344	81.0516	52.7344	80.5457	52.7344	81.0842	52.7344	80.466	52.7344	81.0996	52.7344	80.3919	52.7344	81.0965	52.7344	80.3253	52.7344	81.0744	52.7344	80.2679	52.7344	81.0339	52.7344	80.2209	52.7344	80.9769	52.7344	80.1852	52.7344	80.9063	52.7344	80.1613	52.7344	80.8261	52.7344	80.1493	52.7344	80.7405	52.7344	80.1488	52.7344	80.6537	52.7344	80.1594	52.7344	80.5694	52.7344	80.1802	52.7344	80.4903	52.7344	80.2106	52.7344	80.4182	52.7344	80.25	52.7344	80.3539	52.7344	80.2978
54.1992	81.0283	54.1992	80.9547	54.1992	81.094	54.1992	80.8759	54.1992	81.1491	54.1992	80.7947	54.1992	81.1912	54.1992	80.7137	54.1992	81.2179	54.1992	80.6353	54.1992	81.2278	54.1992	80.562	54.1992	81.2197	54.1992	80.4958	54.1992	81.1935	54.1992	80.4384	54.1992	81.1501	54.1992	80.3912	54.1992	81.0918	54.1992	80.3552	54.1992	81.0215	54.1992	80.3307	54.1992	80.9432	54.1992	80.3179	54.1992	80.861	54.1992	80.3163	54.1992	80.7789	54.1992	80.3254	54.1992	80.7001	54.1992	80.3442	54.1992	80.627	54.1992	80.3718	54.1992	80.5609	54.1992	80.4077	54.1992	80.5023	54.1992	80.4512
56.3965	81.2274	56.3965	81.1575	56.3965	81.2888	56.3965	81.0816	56.3965	81.3392	56.3965	81.0027	56.3965	81.3762	56.3965	80.9233	56.3965	81.398	56.3965	80.8462	56.3965	81.4034	56.3965	80.774	56.3965	81.3918	56.3965	80.7088	56.3965	81.3635	56.3965	80.6526	56.3965	81.3198	56.3965	80.6069	56.3965	81.263	56.3965	80.5726	56.3965	81.1962	56.3965	80.5503	56.3965	81.1233	56.3965	80.5397	56.3965	81.0479	56.3965	80.5405	56.3965	80.9735	56.3965	80.5516	56.3965	80.9028	56.3965	80.5719	56.3965	80.8373	56.3965	80.6002	56.3965	80.7777	56.3965	80.6354	56.3965	80.7243	56.3965	80.6769
