"SPL Horizontal"
"On-Axis"		"10°"		"-10°"		"20°"		"-20°"		"30°"		"-30°"		"40°"		"-40°"		"50°"		"-50°"		"60°"		"-60°"		"70°"		"-70°"		"80°"		"-80°"		"90°"		"-90°"		"100°"		"-100°"		"110°"		"-110°"		"120°"		"-120°"		"130°"		"-130°"		"140°"		"-140°"		"150°"		"-150°"		"160°"		"-160°"		"170°"		"-170°"		"180°"
"Frequency / Hz"	"Sound Pressure Level / dB (re 20 µPa/V)  [2.83  V @ 1. m]"	"Frequency / Hz"	"Sound Pressure Level / dB (re 20 µPa/V)  [2.83  V @ 1. m]"	"Frequency / Hz"	"Sound Pressure Level / dB (re 20 µPa/V)  [2.83  V @ 1. m]"	"Frequency / Hz"	"Sound Pressure Level / dB (re 20 µPa/V)  [2.83  V @ 1. m]"	"Frequency / Hz"	"Sound Pressure Level / dB (re 20 µPa/V)  [2.83  V @ 1. m]"	"Frequency / Hz"	"Sound Pressure Level / dB (re 20 µPa/V)  [2.83  V @ 1. m]"	"Frequency / Hz"	"Sound Pressure Level / dB (re 20 µPa/V)  [2.83  V @ 1. m]"	"Frequency / Hz"	"Sound Pressure Level / dB (re 20 µPa/V)  [2.83  V @ 1. m]"	"Frequency / Hz"	"Sound Pressure Level / dB (re 20 µPa/V)  [2.83  V @ 1. m]"	"Frequency / Hz"	"Sound Pressure Level / dB (re 20 µPa/V)  [2.83  V @ 1. m]"	"Frequency / Hz"	"Sound Pressure Level / dB (re 20 µPa/V)  [2.83  V @ 1. m]"	"Frequency / Hz"	"Sound Pressure Level / dB (re 20 µPa/V)  [2.83  V @ 1. m]"	"Frequency / Hz"	"Sound Pressure Level / dB (re 20 µPa/V)  [2.83  V @ 1. m]"	"Frequency / Hz"	"Sound Pressure Level / dB (re 20 µPa/V)  [2.83  V @ 1. m]"	"Frequency / Hz"	"Sound Pressure Level / dB (re 20 µPa/V)  [2.83  V @ 1. m]"	"Frequency / Hz"	"Sound Pressure Level / dB (re 20 µPa/V)  [2.83  V @ 1. m]"	"Frequency / Hz"	"Sound Pressure Level / dB (re 20 µPa/V)  [2.83  V @ 1. m]"	"Frequency / Hz"	"Sound Pressure Level / dB (re 20 µPa/V)  [2.83  V @ 1. m]"	"Frequency / Hz"	"Sound Pressure Level / dB (re 20 µPa/V)  [2.83  V @ 1. m]"	"Frequency / Hz"	"Sound Pressure Level / dB (re 20 µPa/V)  [2.83  V @ 1. m]"	"Frequency / Hz"	"Sound Pressure Level / dB (re 20 µPa/V)  [2.83  V @ 1. m]"	"Frequency / Hz"	"Sound Pressure Level / dB (re 20 µPa/V)  [2.83  V @ 1. m]"	"Frequency / Hz"	"Sound Pressure Level / dB (re 20 µPa/V)  [2.83  V @ 1. m]"	"Frequency / Hz"	"Sound Pressure Level / dB (re 20 µPa/V)  [2.83  V @ 1. m]"	"Frequency / Hz"	"Sound Pressure Level / dB (re 20 µPa/V)  [2.83  V @ 1. m]"	"Frequency / Hz"	"Sound Pressure Level / dB (re 20 µPa/V)  [2.83  V @ 1. m]"	"Frequency / Hz"	"Sound Pressure Level / dB (re 20 µPa/V)  [2.83  V @ 1. m]"	"Frequency / Hz"	"Sound Pressure Level / dB (re 20 µPa/V)  [2.83  V @ 1. m]"	"Frequency / Hz"	"Sound Pressure Level / dB (re 20 µPa/V)  [2.83  V @ 1. m]"	"Frequency / Hz"	"Sound Pressure Level / dB (re 20 µPa/V)  [2.83  V @ 1. m]"	"Frequency / Hz"	"Sound Pressure Level / dB (re 20 µPa/V)  [2.83  V @ 1. m]"	"Frequency / Hz"	"Sound Pressure Level / dB (re 20 µPa/V)  [2.83  V @ 1. m]"	"Frequency / Hz"	"Sound Pressure Level / dB (re 20 µPa/V)  [2.83  V @ 1. m]"	"Frequency / Hz"	"Sound Pressure Level / dB (re 20 µPa/V)  [2.83  V @ 1. m]"	"Frequency / Hz"	"Sound Pressure Level / dB (re 20 µPa/V)  [2.83  V @ 1. m]"	"Frequency / Hz"	"Sound Pressure Level / dB (re 20 µPa/V)  [2.83  V @ 1. m]"
20.5078	49.9495	20.5078	49.8839	20.5078	49.9438	20.5078	49.7472	20.5078	49.8671	20.5078	49.5401	20.5078	49.7198	20.5078	49.2636	20.5078	49.5028	20.5078	48.9197	20.5078	49.2176	20.5078	48.5115	20.5078	48.8667	20.5078	48.0448	20.5078	48.4544	20.5078	47.5295	20.5078	47.9874	20.5078	46.9801	20.5078	47.4753	20.5078	46.4163	20.5078	46.9315	20.5078	45.8612	20.5078	46.3729	20.5078	45.3387	20.5078	45.8204	20.5078	44.8708	20.5078	45.2973	20.5078	44.4753	20.5078	44.8276	20.5078	44.1655	20.5078	44.4323	20.5078	43.9502	20.5078	44.1275	20.5078	43.8358	20.5078	43.9239	20.5078	43.8263
21.9727	50.8542	21.9727	50.7505	21.9727	50.9051	21.9727	50.5943	21.9727	50.9033	21.9727	50.387	21.9727	50.8494	21.9727	50.1313	21.9727	50.7443	21.9727	49.8319	21.9727	50.5892	21.9727	49.4965	21.9727	50.3861	21.9727	49.1355	21.9727	50.1388	21.9727	48.7632	21.9727	49.8534	21.9727	48.3972	21.9727	49.539	21.9727	48.0578	21.9727	49.2084	21.9727	47.765	21.9727	48.8769	21.9727	47.5355	21.9727	48.5609	21.9727	47.3786	21.9727	48.2755	21.9727	47.2939	21.9727	48.031	21.9727	47.272	21.9727	47.8308	21.9727	47.2983	21.9727	47.6713	21.9727	47.3582	21.9727	47.5443	21.9727	47.4412
23.4375	54.3864	23.4375	54.3468	23.4375	54.4086	23.4375	54.291	23.4375	54.4133	23.4375	54.2211	23.4375	54.4014	23.4375	54.1405	23.4375	54.3745	23.4375	54.0537	23.4375	54.3358	23.4375	53.9662	23.4375	54.2892	23.4375	53.8847	23.4375	54.2398	23.4375	53.8165	23.4375	54.1933	23.4375	53.7687	23.4375	54.1555	23.4375	53.7471	23.4375	54.1304	23.4375	53.7543	23.4375	54.1203	23.4375	53.7891	23.4375	54.1243	23.4375	53.8457	23.4375	54.1388	23.4375	53.9156	23.4375	54.1579	23.4375	53.989	23.4375	54.1747	23.4375	54.0572	23.4375	54.1827	23.4375	54.1135	23.4375	54.1767	23.4375	54.1539
24.9023	57.5967	24.9023	57.5896	24.9023	57.6007	24.9023	57.5806	24.9023	57.6008	24.9023	57.5711	24.9023	57.5969	24.9023	57.5627	24.9023	57.5898	24.9023	57.5569	24.9023	57.5807	24.9023	57.5551	24.9023	57.5715	24.9023	57.5586	24.9023	57.5647	24.9023	57.5684	24.9023	57.5621	24.9023	57.5852	24.9023	57.5653	24.9023	57.6088	24.9023	57.5749	24.9023	57.6379	24.9023	57.5906	24.9023	57.6702	24.9023	57.6113	24.9023	57.7023	24.9023	57.6354	24.9023	57.7304	24.9023	57.6616	24.9023	57.7511	24.9023	57.6882	24.9023	57.7621	24.9023	57.7138	24.9023	57.7627	24.9023	57.7364	24.9023	57.7535
26.3672	60.572	26.3672	60.5611	26.3672	60.5814	26.3672	60.5491	26.3672	60.5889	26.3672	60.537	26.3672	60.5944	26.3672	60.5256	26.3672	60.5979	26.3672	60.5159	26.3672	60.5997	26.3672	60.509	26.3672	60.6002	26.3672	60.5058	26.3672	60.5999	26.3672	60.5071	26.3672	60.5995	26.3672	60.5134	26.3672	60.5995	26.3672	60.525	26.3672	60.6006	26.3672	60.5413	26.3672	60.6031	26.3672	60.5611	26.3672	60.6071	26.3672	60.5824	26.3672	60.6125	26.3672	60.603	26.3672	60.619	26.3672	60.6204	26.3672	60.6262	26.3672	60.6331	26.3672	60.6332	26.3672	60.64	26.3672	60.6388	26.3672	60.6416
27.832	63.9895	27.832	63.9987	27.832	63.9817	27.832	64.009	27.832	63.9753	27.832	64.0201	27.832	63.9705	27.832	64.0318	27.832	63.9674	27.832	64.0436	27.832	63.966	27.832	64.0553	27.832	63.9662	27.832	64.0668	27.832	63.9682	27.832	64.0779	27.832	63.9719	27.832	64.0886	27.832	63.9775	27.832	64.0988	27.832	63.9853	27.832	64.1084	27.832	63.9954	27.832	64.117	27.832	64.008	27.832	64.1239	27.832	64.023	27.832	64.1286	27.832	64.0402	27.832	64.1301	27.832	64.0587	27.832	64.1277	27.832	64.0775	27.832	64.121	27.832	64.0951	27.832	64.1099
29.2969	68.7357	29.2969	68.7275	29.2969	68.7425	29.2969	68.7181	29.2969	68.7476	29.2969	68.708	29.2969	68.7508	29.2969	68.6971	29.2969	68.7518	29.2969	68.6858	29.2969	68.7504	29.2969	68.6739	29.2969	68.7467	29.2969	68.6616	29.2969	68.7406	29.2969	68.649	29.2969	68.7322	29.2969	68.6363	29.2969	68.7214	29.2969	68.6239	29.2969	68.7086	29.2969	68.6123	29.2969	68.6939	29.2969	68.6022	29.2969	68.6779	29.2969	68.5942	29.2969	68.6614	29.2969	68.5888	29.2969	68.6451	29.2969	68.5864	29.2969	68.6301	29.2969	68.5871	29.2969	68.6169	29.2969	68.5908	29.2969	68.6058	29.2969	68.5971
30.7617	71.1493	30.7617	71.1436	30.7617	71.1519	30.7617	71.135	30.7617	71.1512	30.7617	71.1237	30.7617	71.1473	30.7617	71.1099	30.7617	71.1401	30.7617	71.0937	30.7617	71.1299	30.7617	71.0755	30.7617	71.1168	30.7617	71.0555	30.7617	71.1012	30.7617	71.034	30.7617	71.0835	30.7617	71.0116	30.7617	71.0639	30.7617	70.9891	30.7617	71.0428	30.7617	70.9673	30.7617	71.0207	30.7617	70.9471	30.7617	70.998	30.7617	70.9293	30.7617	70.9755	30.7617	70.9147	30.7617	70.954	30.7617	70.9038	30.7617	70.9344	30.7617	70.8971	30.7617	70.918	30.7617	70.8951	30.7617	70.9056	30.7617	70.8979
32.2266	73.4316	32.2266	73.4276	32.2266	73.4309	32.2266	73.419	32.2266	73.4254	32.2266	73.406	32.2266	73.4151	32.2266	73.3888	32.2266	73.4002	32.2266	73.3678	32.2266	73.3807	32.2266	73.3435	32.2266	73.3571	32.2266	73.3164	32.2266	73.3298	32.2266	73.2873	32.2266	73.2996	32.2266	73.2569	32.2266	73.2675	32.2266	73.2262	32.2266	73.2346	32.2266	73.1964	32.2266	73.202	32.2266	73.1683	32.2266	73.171	32.2266	73.1428	32.2266	73.1428	32.2266	73.1207	32.2266	73.1184	32.2266	73.1024	32.2266	73.0989	32.2266	73.0884	32.2266	73.085	32.2266	73.0792	32.2266	73.0771	32.2266	73.0752
33.6914	75.4683	33.6914	75.4632	33.6914	75.4674	33.6914	75.4522	33.6914	75.4606	33.6914	75.4353	33.6914	75.448	33.6914	75.413	33.6914	75.43	33.6914	75.3856	33.6914	75.4068	33.6914	75.3539	33.6914	75.3791	33.6914	75.3187	33.6914	75.3473	33.6914	75.2809	33.6914	75.3122	33.6914	75.2416	33.6914	75.2747	33.6914	75.2021	33.6914	75.2357	33.6914	75.1636	33.6914	75.1965	33.6914	75.1274	33.6914	75.158	33.6914	75.0946	33.6914	75.1217	33.6914	75.0661	33.6914	75.0888	33.6914	75.0432	33.6914	75.0606	33.6914	75.0268	33.6914	75.0385	33.6914	75.0177	33.6914	75.0236	33.6914	75.0165
35.1562	77.2671	35.1562	77.2616	35.1562	77.2657	35.1562	77.2492	35.1562	77.2573	35.1562	77.2302	35.1562	77.2424	35.1562	77.2051	35.1562	77.2212	35.1562	77.1744	35.1562	77.1943	35.1562	77.139	35.1562	77.1624	35.1562	77.0999	35.1562	77.1264	35.1562	77.0581	35.1562	77.0872	35.1562	77.0148	35.1562	77.0458	35.1562	76.9714	35.1562	77.0033	35.1562	76.9292	35.1562	76.961	35.1562	76.8895	35.1562	76.9202	35.1562	76.8537	35.1562	76.8822	35.1562	76.823	35.1562	76.8481	35.1562	76.7988	35.1562	76.8192	35.1562	76.7819	35.1562	76.7964	35.1562	76.7731	35.1562	76.7807	35.1562	76.7728
36.6211	78.5604	36.6211	78.5532	36.6211	78.5626	36.6211	78.5412	36.6211	78.5597	36.6211	78.5245	36.6211	78.5517	36.6211	78.5033	36.6211	78.5386	36.6211	78.4781	36.6211	78.5206	36.6211	78.4491	36.6211	78.4979	36.6211	78.4169	36.6211	78.4709	36.6211	78.3823	36.6211	78.44	36.6211	78.346	36.6211	78.4061	36.6211	78.3092	36.6211	78.3699	36.6211	78.2731	36.6211	78.3325	36.6211	78.2388	36.6211	78.2954	36.6211	78.2079	36.6211	78.2597	36.6211	78.1817	36.6211	78.2268	36.6211	78.1616	36.6211	78.1979	36.6211	78.1487	36.6211	78.1742	36.6211	78.1435	36.6211	78.1567	36.6211	78.1462
38.0859	79.3309	38.0859	79.3193	38.0859	79.3363	38.0859	79.3015	38.0859	79.3354	38.0859	79.2778	38.0859	79.3281	38.0859	79.2487	38.0859	79.3148	38.0859	79.2148	38.0859	79.2957	38.0859	79.1768	38.0859	79.2712	38.0859	79.1356	38.0859	79.2417	38.0859	79.0924	38.0859	79.2078	38.0859	79.0486	38.0859	79.1703	38.0859	79.0055	38.0859	79.1298	38.0859	78.9649	38.0859	79.0875	38.0859	78.928	38.0859	79.0446	38.0859	78.8963	38.0859	79.0023	38.0859	78.871	38.0859	78.9621	38.0859	78.8532	38.0859	78.9255	38.0859	78.8439	38.0859	78.894	38.0859	78.8434	38.0859	78.8691	38.0859	78.852
39.5508	79.9671	39.5508	79.9647	39.5508	79.9625	39.5508	79.9549	39.5508	79.9509	39.5508	79.9381	39.5508	79.9329	39.5508	79.9143	39.5508	79.909	39.5508	79.8841	39.5508	79.8799	39.5508	79.8482	39.5508	79.8463	39.5508	79.8075	39.5508	79.8088	39.5508	79.7631	39.5508	79.7684	39.5508	79.7164	39.5508	79.7259	39.5508	79.6688	39.5508	79.6823	39.5508	79.6217	39.5508	79.6386	39.5508	79.5769	39.5508	79.5962	39.5508	79.5358	39.5508	79.5563	39.5508	79.5	39.5508	79.5201	39.5508	79.4713	39.5508	79.489	39.5508	79.451	39.5508	79.4643	39.5508	79.44	39.5508	79.4472	39.5508	79.4388
41.0156	80.6474	41.0156	80.6478	41.0156	80.6379	41.0156	80.639	41.0156	80.62	41.0156	80.6209	41.0156	80.5941	41.0156	80.5939	41.0156	80.5612	41.0156	80.5584	41.0156	80.5221	41.0156	80.5153	41.0156	80.4775	41.0156	80.4656	41.0156	80.4283	41.0156	80.4106	41.0156	80.3753	41.0156	80.3516	41.0156	80.3191	41.0156	80.2901	41.0156	80.2609	41.0156	80.2275	41.0156	80.202	41.0156	80.1656	41.0156	80.1441	41.0156	80.1065	41.0156	80.0892	41.0156	80.0526	41.0156	80.0397	41.0156	80.0065	41.0156	79.9979	41.0156	79.9712	41.0156	79.9662	41.0156	79.9486	41.0156	79.9464	41.0156	79.9403
42.4805	81.282	42.4805	81.2935	42.4805	81.2612	42.4805	81.2957	42.4805	81.2316	42.4805	81.2886	42.4805	81.1936	42.4805	81.2724	42.4805	81.1481	42.4805	81.2477	42.4805	81.0961	42.4805	81.215	42.4805	81.0388	42.4805	81.1754	42.4805	80.9776	42.4805	81.1297	42.4805	80.9143	42.4805	81.0793	42.4805	80.8507	42.4805	81.0255	42.4805	80.7893	42.4805	80.9695	42.4805	80.7325	42.4805	80.9128	42.4805	80.6829	42.4805	80.8565	42.4805	80.6429	42.4805	80.8021	42.4805	80.6146	42.4805	80.7508	42.4805	80.5991	42.4805	80.7041	42.4805	80.5971	42.4805	80.6635	42.4805	80.6081	42.4805	80.6308
43.9453	81.7122	43.9453	81.7181	43.9453	81.6973	43.9453	81.7151	43.9453	81.6735	43.9453	81.7035	43.9453	81.6416	43.9453	81.6838	43.9453	81.6022	43.9453	81.6571	43.9453	81.5565	43.9453	81.6242	43.9453	81.506	43.9453	81.5863	43.9453	81.4523	43.9453	81.5449	43.9453	81.3971	43.9453	81.501	43.9453	81.3425	43.9453	81.4558	43.9453	81.2905	43.9453	81.4103	43.9453	81.2433	43.9453	81.3656	43.9453	81.2026	43.9453	81.3222	43.9453	81.1702	43.9453	81.2809	43.9453	81.1472	43.9453	81.2426	43.9453	81.1344	43.9453	81.2081	43.9453	81.1318	43.9453	81.1784	43.9453	81.139	43.9453	81.155
45.4102	82.6122	45.4102	82.6123	45.4102	82.6012	45.4102	82.6018	45.4102	82.5793	45.4102	82.581	45.4102	82.547	45.4102	82.5509	45.4102	82.5049	45.4102	82.5123	45.4102	82.454	45.4102	82.4665	45.4102	82.3958	45.4102	82.4148	45.4102	82.332	45.4102	82.3588	45.4102	82.2647	45.4102	82.3001	45.4102	82.1963	45.4102	82.2402	45.4102	82.1292	45.4102	82.1808	45.4102	82.0661	45.4102	82.1233	45.4102	82.0093	45.4102	82.069	45.4102	81.961	45.4102	82.0193	45.4102	81.923	45.4102	81.9754	45.4102	81.8966	45.4102	81.9383	45.4102	81.8824	45.4102	81.9093	45.4102	81.8802	45.4102	81.8895
46.875	82.8488	46.875	82.8466	46.875	82.8399	46.875	82.8335	46.875	82.8201	46.875	82.8101	46.875	82.7896	46.875	82.7771	46.875	82.7491	46.875	82.7355	46.875	82.6997	46.875	82.6867	46.875	82.6428	46.875	82.6322	46.875	82.5799	46.875	82.5737	46.875	82.5133	46.875	82.5128	46.875	82.4451	46.875	82.4514	46.875	82.3777	46.875	82.3912	46.875	82.3138	46.875	82.3337	46.875	82.2557	46.875	82.2804	46.875	82.2055	46.875	82.2326	46.875	82.1651	46.875	82.1914	46.875	82.1357	46.875	82.1577	46.875	82.1179	46.875	82.1326	46.875	82.1118	46.875	82.117
48.3398	83.0884	48.3398	83.086	48.3398	83.0793	48.3398	83.0723	48.3398	83.0587	48.3398	83.0479	48.3398	83.0271	48.3398	83.0134	48.3398	82.9852	48.3398	82.97	48.3398	82.9341	48.3398	82.9189	48.3398	82.8751	48.3398	82.8617	48.3398	82.8099	48.3398	82.8	48.3398	82.7407	48.3398	82.7357	48.3398	82.6696	48.3398	82.6704	48.3398	82.5992	48.3398	82.606	48.3398	82.5318	48.3398	82.5442	48.3398	82.4701	48.3398	82.4867	48.3398	82.4163	48.3398	82.4351	48.3398	82.3722	48.3398	82.3907	48.3398	82.3393	48.3398	82.3549	48.3398	82.3184	48.3398	82.3288	48.3398	82.3099	48.3398	82.3135
51.2695	83.4773	51.2695	83.4749	51.2695	83.4692	51.2695	83.4624	51.2695	83.4507	51.2695	83.4402	51.2695	83.4222	51.2695	83.4092	51.2695	83.3847	51.2695	83.3706	51.2695	83.3391	51.2695	83.3257	51.2695	83.2869	51.2695	83.2761	51.2695	83.2298	51.2695	83.2234	51.2695	83.1697	51.2695	83.1692	51.2695	83.1087	51.2695	83.1152	51.2695	83.0491	51.2695	83.0627	51.2695	82.9929	51.2695	83.013	51.2695	82.9423	51.2695	82.9673	51.2695	82.8992	51.2695	82.9263	51.2695	82.8648	51.2695	82.8909	51.2695	82.8401	51.2695	82.8618	51.2695	82.8256	51.2695	82.8399	51.2695	82.821	51.2695	82.826
52.7344	83.632	52.7344	83.6301	52.7344	83.6236	52.7344	83.618	52.7344	83.6049	52.7344	83.5963	52.7344	83.5763	52.7344	83.5662	52.7344	83.5388	52.7344	83.5288	52.7344	83.4938	52.7344	83.4856	52.7344	83.4428	52.7344	83.4382	52.7344	83.3877	52.7344	83.3883	52.7344	83.3307	52.7344	83.3377	52.7344	83.274	52.7344	83.2879	52.7344	83.2198	52.7344	83.2404	52.7344	83.1702	52.7344	83.1963	52.7344	83.1268	52.7344	83.1564	52.7344	83.091	52.7344	83.1215	52.7344	83.0637	52.7344	83.0919	52.7344	83.045	52.7344	83.0678	52.7344	83.0349	52.7344	83.0497	52.7344	83.0327	52.7344	83.0378
54.1992	83.8371	54.1992	83.8352	54.1992	83.8279	54.1992	83.8226	54.1992	83.8079	54.1992	83.8	54.1992	83.7775	54.1992	83.7687	54.1992	83.7378	54.1992	83.73	54.1992	83.6903	54.1992	83.6857	54.1992	83.6369	54.1992	83.6378	54.1992	83.5798	54.1992	83.5882	54.1992	83.5215	54.1992	83.5388	54.1992	83.4643	54.1992	83.4914	54.1992	83.4109	54.1992	83.4473	54.1992	83.3635	54.1992	83.4074	54.1992	83.3238	54.1992	83.3722	54.1992	83.293	54.1992	83.342	54.1992	83.2715	54.1992	83.3165	54.1992	83.2591	54.1992	83.2953	54.1992	83.2548	54.1992	83.2783	54.1992	83.2573	54.1992	83.2655
55.6641	84.0491	55.6641	84.043	55.6641	84.042	55.6641	84.024	55.6641	84.0216	55.6641	83.9932	55.6641	83.9881	55.6641	83.9519	55.6641	83.9425	55.6641	83.9016	55.6641	83.8863	55.6641	83.8444	55.6641	83.8211	55.6641	83.7823	55.6641	83.7495	55.6641	83.7177	55.6641	83.6741	55.6641	83.6526	55.6641	83.5981	55.6641	83.5892	55.6641	83.5245	55.6641	83.5291	55.6641	83.4563	55.6641	83.4736	55.6641	83.3963	55.6641	83.4237	55.6641	83.3467	55.6641	83.3799	55.6641	83.3087	55.6641	83.3426	55.6641	83.2828	55.6641	83.312	55.6641	83.2689	55.6641	83.2885	55.6641	83.266	55.6641	83.2729
58.5938	84.4946	58.5938	84.4767	58.5938	84.4992	58.5938	84.4464	58.5938	84.4904	58.5938	84.405	58.5938	84.4684	58.5938	84.3541	58.5938	84.434	58.5938	84.2959	58.5938	84.3886	58.5938	84.2326	58.5938	84.334	58.5938	84.1669	58.5938	84.2722	58.5938	84.1012	58.5938	84.2057	58.5938	84.0379	58.5938	84.1372	58.5938	83.979	58.5938	84.0694	58.5938	83.9263	58.5938	84.0047	58.5938	83.8809	58.5938	83.9456	58.5938	83.8432	58.5938	83.8939	58.5938	83.8134	58.5938	83.8508	58.5938	83.7914	58.5938	83.817	58.5938	83.7768	58.5938	83.7925	58.5938	83.7694	58.5938	83.7768	58.5938	83.7693
60.0586	84.6203	60.0586	84.6039	60.0586	84.6222	60.0586	84.5737	60.0586	84.6096	60.0586	84.5308	60.0586	84.5829	60.0586	84.477	60.0586	84.5431	60.0586	84.4145	60.0586	84.4919	60.0586	84.3456	60.0586	84.4311	60.0586	84.2733	60.0586	84.3633	60.0586	84.2004	60.0586	84.2911	60.0586	84.1296	60.0586	84.2174	60.0586	84.0633	60.0586	84.145	60.0586	84.0037	60.0586	84.0767	60.0586	83.9521	60.0586	84.0147	60.0586	83.9093	60.0586	83.9607	60.0586	83.8757	60.0586	83.9158	60.0586	83.8512	60.0586	83.8803	60.0586	83.8353	60.0586	83.8541	60.0586	83.8277	60.0586	83.8369	60.0586	83.8282
62.9883	84.7499	62.9883	84.7328	62.9883	84.7533	62.9883	84.7026	62.9883	84.7429	62.9883	84.6607	62.9883	84.7188	62.9883	84.6086	62.9883	84.6821	62.9883	84.5484	62.9883	84.6341	62.9883	84.4825	62.9883	84.5766	62.9883	84.4138	62.9883	84.5119	62.9883	84.3448	62.9883	84.4427	62.9883	84.2782	62.9883	84.3718	62.9883	84.2165	62.9883	84.302	62.9883	84.1614	62.9883	84.2361	62.9883	84.1142	62.9883	84.1765	62.9883	84.0755	62.9883	84.1247	62.9883	84.0453	62.9883	84.082	62.9883	84.0232	62.9883	84.0488	62.9883	84.0088	62.9883	84.0247	62.9883	84.0017	62.9883	84.0093	62.9883	84.0018
64.4531	84.8251	64.4531	84.8072	64.4531	84.8289	64.4531	84.776	64.4531	84.8184	64.4531	84.7326	64.4531	84.7942	64.4531	84.6789	64.4531	84.7572	64.4531	84.6171	64.4531	84.709	64.4531	84.55	64.4531	84.6516	64.4531	84.4804	64.4531	84.5874	64.4531	84.4113	64.4531	84.5194	64.4531	84.3454	64.4531	84.4503	64.4531	84.2853	64.4531	84.3831	64.4531	84.2329	64.4531	84.3204	64.4531	84.1893	64.4531	84.2644	64.4531	84.1549	64.4531	84.2164	64.4531	84.1294	64.4531	84.1771	64.4531	84.1122	64.4531	84.1467	64.4531	84.1021	64.4531	84.1244	64.4531	84.0986	64.4531	84.1094	64.4531	84.101
67.3828	85.0239	67.3828	85.0001	67.3828	85.0321	67.3828	84.9615	67.3828	85.0244	67.3828	84.9096	67.3828	85.0015	67.3828	84.8464	67.3828	84.9643	67.3828	84.7746	67.3828	84.9146	67.3828	84.6973	67.3828	84.8544	67.3828	84.6179	67.3828	84.7866	67.3828	84.54	67.3828	84.7141	67.3828	84.4668	67.3828	84.6399	67.3828	84.4013	67.3828	84.5673	67.3828	84.3457	67.3828	84.499	67.3828	84.3013	67.3828	84.4372	67.3828	84.2682	67.3828	84.3835	67.3828	84.2459	67.3828	84.3387	67.3828	84.2332	67.3828	84.3026	67.3828	84.2286	67.3828	84.2747	67.3828	84.231	67.3828	84.254	67.3828	84.2395
