"SPL Vertical"																																																																							
"On-Axis"		"10°"		"-10°"		"20°"		"-20°"		"30°"		"-30°"		"40°"		"-40°"		"50°"		"-50°"		"60°"		"-60°"		"70°"		"-70°"		"80°"		"-80°"		"90°"		"-90°"		"100°"		"-100°"		"110°"		"-110°"		"120°"		"-120°"		"130°"		"-130°"		"140°"		"-140°"		"150°"		"-150°"		"160°"		"-160°"		"170°"		"-170°"		"180°"	
"Frequency / Hz"	"Sound Pressure Level / dB (re 20 µPa/V)  [2.83  V @ 1. m]"	"Frequency / Hz"	"Sound Pressure Level / dB (re 20 µPa/V)  [2.83  V @ 1. m]"	"Frequency / Hz"	"Sound Pressure Level / dB (re 20 µPa/V)  [2.83  V @ 1. m]"	"Frequency / Hz"	"Sound Pressure Level / dB (re 20 µPa/V)  [2.83  V @ 1. m]"	"Frequency / Hz"	"Sound Pressure Level / dB (re 20 µPa/V)  [2.83  V @ 1. m]"	"Frequency / Hz"	"Sound Pressure Level / dB (re 20 µPa/V)  [2.83  V @ 1. m]"	"Frequency / Hz"	"Sound Pressure Level / dB (re 20 µPa/V)  [2.83  V @ 1. m]"	"Frequency / Hz"	"Sound Pressure Level / dB (re 20 µPa/V)  [2.83  V @ 1. m]"	"Frequency / Hz"	"Sound Pressure Level / dB (re 20 µPa/V)  [2.83  V @ 1. m]"	"Frequency / Hz"	"Sound Pressure Level / dB (re 20 µPa/V)  [2.83  V @ 1. m]"	"Frequency / Hz"	"Sound Pressure Level / dB (re 20 µPa/V)  [2.83  V @ 1. m]"	"Frequency / Hz"	"Sound Pressure Level / dB (re 20 µPa/V)  [2.83  V @ 1. m]"	"Frequency / Hz"	"Sound Pressure Level / dB (re 20 µPa/V)  [2.83  V @ 1. m]"	"Frequency / Hz"	"Sound Pressure Level / dB (re 20 µPa/V)  [2.83  V @ 1. m]"	"Frequency / Hz"	"Sound Pressure Level / dB (re 20 µPa/V)  [2.83  V @ 1. m]"	"Frequency / Hz"	"Sound Pressure Level / dB (re 20 µPa/V)  [2.83  V @ 1. m]"	"Frequency / Hz"	"Sound Pressure Level / dB (re 20 µPa/V)  [2.83  V @ 1. m]"	"Frequency / Hz"	"Sound Pressure Level / dB (re 20 µPa/V)  [2.83  V @ 1. m]"	"Frequency / Hz"	"Sound Pressure Level / dB (re 20 µPa/V)  [2.83  V @ 1. m]"	"Frequency / Hz"	"Sound Pressure Level / dB (re 20 µPa/V)  [2.83  V @ 1. m]"	"Frequency / Hz"	"Sound Pressure Level / dB (re 20 µPa/V)  [2.83  V @ 1. m]"	"Frequency / Hz"	"Sound Pressure Level / dB (re 20 µPa/V)  [2.83  V @ 1. m]"	"Frequency / Hz"	"Sound Pressure Level / dB (re 20 µPa/V)  [2.83  V @ 1. m]"	"Frequency / Hz"	"Sound Pressure Level / dB (re 20 µPa/V)  [2.83  V @ 1. m]"	"Frequency / Hz"	"Sound Pressure Level / dB (re 20 µPa/V)  [2.83  V @ 1. m]"	"Frequency / Hz"	"Sound Pressure Level / dB (re 20 µPa/V)  [2.83  V @ 1. m]"	"Frequency / Hz"	"Sound Pressure Level / dB (re 20 µPa/V)  [2.83  V @ 1. m]"	"Frequency / Hz"	"Sound Pressure Level / dB (re 20 µPa/V)  [2.83  V @ 1. m]"	"Frequency / Hz"	"Sound Pressure Level / dB (re 20 µPa/V)  [2.83  V @ 1. m]"	"Frequency / Hz"	"Sound Pressure Level / dB (re 20 µPa/V)  [2.83  V @ 1. m]"	"Frequency / Hz"	"Sound Pressure Level / dB (re 20 µPa/V)  [2.83  V @ 1. m]"	"Frequency / Hz"	"Sound Pressure Level / dB (re 20 µPa/V)  [2.83  V @ 1. m]"	"Frequency / Hz"	"Sound Pressure Level / dB (re 20 µPa/V)  [2.83  V @ 1. m]"	"Frequency / Hz"	"Sound Pressure Level / dB (re 20 µPa/V)  [2.83  V @ 1. m]"	"Frequency / Hz"	"Sound Pressure Level / dB (re 20 µPa/V)  [2.83  V @ 1. m]"	"Frequency / Hz"	"Sound Pressure Level / dB (re 20 µPa/V)  [2.83  V @ 1. m]"
20.5078	58.4238	20.5078	58.4885	20.5078	58.4167	20.5078	58.6104	20.5078	58.468	20.5078	58.7888	20.5078	58.5792	20.5078	59.0223	20.5078	58.7522	20.5078	59.3079	20.5078	58.9889	20.5078	59.6411	20.5078	59.2898	20.5078	60.0155	20.5078	59.6528	20.5078	60.4227	20.5078	60.0717	20.5078	60.8528	20.5078	60.5356	20.5078	61.2942	20.5078	61.0284	20.5078	61.7343	20.5078	61.5303	20.5078	62.1596	20.5078	62.0194	20.5078	62.5558	20.5078	62.4731	20.5078	62.9085	20.5078	62.871	20.5078	63.2037	20.5078	63.1955	20.5078	63.4282	20.5078	63.4335	20.5078	63.5706	20.5078	63.5767	20.5078	63.622
21.9727	58.645	21.9727	58.601	21.9727	58.7098	21.9727	58.5839	21.9727	58.7913	21.9727	58.601	21.9727	58.8883	21.9727	58.6604	21.9727	59.0022	21.9727	58.769	21.9727	59.1372	21.9727	58.932	21.9727	59.2996	21.9727	59.1514	21.9727	59.4969	21.9727	59.4251	21.9727	59.7352	21.9727	59.7465	21.9727	60.0171	21.9727	60.1048	21.9727	60.3394	21.9727	60.4858	21.9727	60.6916	21.9727	60.8725	21.9727	61.0566	21.9727	61.247	21.9727	61.4127	21.9727	61.5908	21.9727	61.7365	21.9727	61.8863	21.9727	62.0062	21.9727	62.1179	21.9727	62.204	21.9727	62.2724	21.9727	62.3176	21.9727	62.3406
23.4375	55.5274	23.4375	55.3444	23.4375	55.6841	23.4375	55.1472	23.4375	55.807	23.4375	54.9516	23.4375	55.8924	23.4375	54.778	23.4375	55.9407	23.4375	54.6499	23.4375	55.9572	23.4375	54.5912	23.4375	55.9525	23.4375	54.6226	23.4375	55.943	23.4375	54.7561	23.4375	55.9499	23.4375	54.9912	23.4375	55.9968	23.4375	55.3137	23.4375	56.1032	23.4375	55.6987	23.4375	56.2786	23.4375	56.1154	23.4375	56.5172	23.4375	56.5314	23.4375	56.7974	23.4375	56.9171	23.4375	57.0876	23.4375	57.247	23.4375	57.353	23.4375	57.5009	23.4375	57.5626	23.4375	57.6642	23.4375	57.6927	23.4375	57.7287
24.9023	52.7378	24.9023	52.4295	24.9023	52.9764	24.9023	52.071	24.9023	53.1334	24.9023	51.6916	24.9023	53.2024	24.9023	51.3339	24.9023	53.1822	24.9023	51.0535	24.9023	53.0781	24.9023	50.9117	24.9023	52.9047	24.9023	50.9585	24.9023	52.6896	24.9023	51.2114	24.9023	52.478	24.9023	51.6462	24.9023	52.331	24.9023	52.2069	24.9023	52.3143	24.9023	52.8264	24.9023	52.4727	24.9023	53.4438	24.9023	52.8065	24.9023	54.011	24.9023	53.2681	24.9023	54.4934	24.9023	53.7839	24.9023	54.8664	24.9023	54.2809	24.9023	55.1129	24.9023	54.7028	24.9023	55.2221	24.9023	55.0122	24.9023	55.1883
26.3672	48.3409	26.3672	47.9557	26.3672	48.6276	26.3672	47.5494	26.3672	48.772	26.3672	47.2444	26.3672	48.7513	26.3672	47.1959	26.3672	48.5589	26.3672	47.5265	26.3672	48.2095	26.3672	48.2436	26.3672	47.7586	26.3672	49.2356	26.3672	47.3372	26.3672	50.3528	26.3672	47.1728	26.3672	51.4754	26.3672	47.5087	26.3672	52.5294	26.3672	48.4016	26.3672	53.4743	26.3672	49.6585	26.3672	54.2891	26.3672	51.02	26.3672	54.9622	26.3672	52.3078	26.3672	55.4857	26.3672	53.4341	26.3672	55.853	26.3672	54.3647	26.3672	56.0573	26.3672	55.0914	26.3672	56.0914	26.3672	55.6166	26.3672	55.9472
27.832	48.9692	27.832	49.0082	27.832	48.9879	27.832	49.1941	27.832	48.9941	27.832	49.6046	27.832	48.9525	27.832	50.2675	27.832	48.87	27.832	51.1461	27.832	48.8057	27.832	52.1623	27.832	48.8763	27.832	53.2328	27.832	49.2286	27.832	54.2921	27.832	49.9583	27.832	55.2957	27.832	51.0321	27.832	56.216	27.832	52.3105	27.832	57.036	27.832	53.6391	27.832	57.7445	27.832	54.9059	27.832	58.333	27.832	56.0462	27.832	58.7941	27.832	57.0277	27.832	59.1204	27.832	57.8367	27.832	59.3044	27.832	58.4695	27.832	59.3385	27.832	58.9276	27.832	59.2152
29.2969	55.4814	29.2969	55.5746	29.2969	55.4403	29.2969	55.7448	29.2969	55.4324	29.2969	56.0155	29.2969	55.4503	29.2969	56.4004	29.2969	55.5021	29.2969	56.8984	29.2969	55.6123	29.2969	57.4932	29.2969	55.8182	29.2969	58.1576	29.2969	56.1593	29.2969	58.8598	29.2969	56.6603	29.2969	59.5688	29.2969	57.3168	29.2969	60.2573	29.2969	58.093	29.2969	60.9024	29.2969	58.9331	29.2969	61.4852	29.2969	59.7781	29.2969	61.9898	29.2969	60.577	29.2969	62.4025	29.2969	61.2911	29.2969	62.7109	29.2969	61.8942	29.2969	62.9042	29.2969	62.3697	29.2969	62.973	29.2969	62.7092	29.2969	62.9097
30.7617	58.7249	30.7617	58.6961	30.7617	58.7683	30.7617	58.703	30.7617	58.8115	30.7617	58.77	30.7617	58.8481	30.7617	58.9201	30.7617	58.8816	30.7617	59.169	30.7617	58.9265	30.7617	59.5211	30.7617	59.0079	30.7617	59.9673	30.7617	59.1585	30.7617	60.4869	30.7617	59.4106	30.7617	61.0527	30.7617	59.7851	30.7617	61.6349	30.7617	60.2805	30.7617	62.2056	30.7617	60.8706	30.7617	62.7395	30.7617	61.5119	30.7617	63.2149	30.7617	62.155	30.7617	63.6134	30.7617	62.7548	30.7617	63.919	30.7617	63.2756	30.7617	64.1185	30.7617	63.6922	30.7617	64.2011	30.7617	63.9893	30.7617	64.1593
32.2266	60.1834	32.2266	60.0746	32.2266	60.2828	32.2266	59.976	32.2266	60.3597	32.2266	59.9121	32.2266	60.4077	32.2266	59.9097	32.2266	60.4279	32.2266	59.9936	32.2266	60.4301	32.2266	60.1806	32.2266	60.4334	32.2266	60.4748	32.2266	60.466	32.2266	60.8656	32.2266	60.5614	32.2266	61.3301	32.2266	60.7509	32.2266	61.8381	32.2266	61.0525	32.2266	62.3575	32.2266	61.4616	32.2266	62.8581	32.2266	61.9503	32.2266	63.3133	32.2266	62.4753	32.2266	63.7005	32.2266	62.9896	32.2266	64.0013	32.2266	63.4514	32.2266	64.2006	32.2266	63.8289	32.2266	64.2875	32.2266	64.1006	32.2266	64.2549
33.6914	60.5222	33.6914	60.3493	33.6914	60.6665	33.6914	60.1671	33.6914	60.7691	33.6914	60.0012	33.6914	60.8232	33.6914	59.8825	33.6914	60.8286	33.6914	59.8431	33.6914	60.792	33.6914	59.9101	33.6914	60.7292	33.6914	60.0981	33.6914	60.6658	33.6914	60.4042	33.6914	60.6364	33.6914	60.8077	33.6914	60.6799	33.6914	61.2758	33.6914	60.8287	33.6914	61.7711	33.6914	61.0963	33.6914	62.2573	33.6914	61.4693	33.6914	62.7029	33.6914	61.9105	33.6914	63.0822	33.6914	62.3714	33.6914	63.3746	33.6914	62.8041	33.6914	63.5647	33.6914	63.1696	33.6914	63.6419	33.6914	63.4405	33.6914	63.6004
35.1562	60.2205	35.1562	60.0023	35.1562	60.3942	35.1562	59.7602	35.1562	60.5098	35.1562	59.5227	35.1562	60.5594	35.1562	59.3255	35.1562	60.5414	35.1562	59.2082	35.1562	60.4609	35.1562	59.207	35.1562	60.3318	35.1562	59.3439	35.1562	60.1786	35.1562	59.6187	35.1562	60.0386	35.1562	60.0079	35.1562	59.9584	35.1562	60.4722	35.1562	59.9847	35.1562	60.9669	35.1562	60.1476	35.1562	61.4501	35.1562	60.4465	35.1562	61.8866	35.1562	60.8483	35.1562	62.2492	35.1562	61.2998	35.1562	62.5175	35.1562	61.7451	35.1562	62.6772	35.1562	62.1372	35.1562	62.7193	35.1562	62.4425	35.1562	62.6401
36.6211	59.6559	36.6211	59.4538	36.6211	59.8149	36.6211	59.236	36.6211	59.9122	36.6211	59.039	36.6211	59.9369	36.6211	58.9062	36.6211	59.8861	36.6211	58.8813	36.6211	59.7653	36.6211	58.9966	36.6211	59.5913	36.6211	59.2617	36.6211	59.3957	36.6211	59.659	36.6211	59.227	36.6211	60.1499	36.6211	59.1462	36.6211	60.6866	36.6211	59.2121	36.6211	61.2231	36.6211	59.4566	36.6211	61.7206	36.6211	59.8676	36.6211	62.1491	36.6211	60.3935	36.6211	62.4863	36.6211	60.9654	36.6211	62.7157	36.6211	61.5193	36.6211	62.8262	36.6211	62.0065	36.6211	62.8106	36.6211	62.395	36.6211	62.6661
38.0859	61.0138	38.0859	60.9108	38.0859	61.0982	38.0859	60.8154	38.0859	61.1453	38.0859	60.7593	38.0859	61.1444	38.0859	60.7755	38.0859	61.0935	38.0859	60.8917	38.0859	61.0012	38.0859	61.1226	38.0859	60.8881	38.0859	61.4646	38.0859	60.7891	38.0859	61.8971	38.0859	60.7509	38.0859	62.3877	38.0859	60.8233	38.0859	62.9002	38.0859	61.0427	38.0859	63.4	38.0859	61.4152	38.0859	63.8578	38.0859	61.9119	38.0859	64.2495	38.0859	62.4801	38.0859	64.5564	38.0859	63.0615	38.0859	64.7643	38.0859	63.6057	38.0859	64.8624	38.0859	64.0755	38.0859	64.8438	38.0859	64.4467	38.0859	64.7049
39.5508	63.5963	39.5508	63.5434	39.5508	63.644	39.5508	63.5041	39.5508	63.6729	39.5508	63.5003	39.5508	63.6752	39.5508	63.5539	39.5508	63.6508	39.5508	63.6827	39.5508	63.6074	39.5508	63.8963	39.5508	63.5625	39.5508	64.1928	39.5508	63.5425	39.5508	64.5595	39.5508	63.5802	39.5508	64.9747	39.5508	63.7074	39.5508	65.4126	39.5508	63.945	39.5508	65.8462	39.5508	64.2934	39.5508	66.2507	39.5508	64.7306	39.5508	66.6045	39.5508	65.2184	39.5508	66.8892	39.5508	65.7134	39.5508	67.0901	39.5508	66.1753	39.5508	67.1959	39.5508	66.5728	39.5508	67.1986	39.5508	66.8836	39.5508	67.0943
41.0156	66.072	41.0156	66.0203	41.0156	66.1206	41.0156	65.9793	41.0156	66.1562	41.0156	65.965	41.0156	66.1735	41.0156	65.9942	41.0156	66.1724	41.0156	66.0814	41.0156	66.1592	41.0156	66.2361	41.0156	66.1465	41.0156	66.4605	41.0156	66.1535	41.0156	66.7481	41.0156	66.2034	41.0156	67.085	41.0156	66.3188	41.0156	67.4517	41.0156	66.5154	41.0156	67.8262	41.0156	66.7956	41.0156	68.186	41.0156	67.1456	41.0156	68.5101	41.0156	67.5387	41.0156	68.78	41.0156	67.941	41.0156	68.9801	41.0156	68.3189	41.0156	69.098	41.0156	68.6438	41.0156	69.1252	41.0156	68.8944	41.0156	69.0571
42.4805	67.5589	42.4805	67.4986	42.4805	67.6159	42.4805	67.4471	42.4805	67.6611	42.4805	67.4182	42.4805	67.6898	42.4805	67.4268	42.4805	67.7019	42.4805	67.4863	42.4805	67.702	42.4805	67.6062	42.4805	67.7004	42.4805	67.7903	42.4805	67.7126	42.4805	68.0347	42.4805	67.7574	42.4805	68.3287	42.4805	67.854	42.4805	68.6557	42.4805	68.0165	42.4805	68.9958	42.4805	68.2492	42.4805	69.3282	42.4805	68.543	42.4805	69.6323	42.4805	68.8773	42.4805	69.8898	42.4805	69.2235	42.4805	70.0849	42.4805	69.5518	42.4805	70.2051	42.4805	69.8352	42.4805	70.2418	42.4805	70.0528	42.4805	70.1907
43.9453	68.9574	43.9453	68.8954	43.9453	69.0171	43.9453	68.8412	43.9453	69.0671	43.9453	68.8069	43.9453	69.1033	43.9453	68.8054	43.9453	69.1252	43.9453	68.8484	43.9453	69.1366	43.9453	68.945	43.9453	69.146	43.9453	69.0992	43.9453	69.1658	43.9453	69.3092	43.9453	69.2116	43.9453	69.5668	43.9453	69.2991	43.9453	69.8582	43.9453	69.4407	43.9453	70.1661	43.9453	69.6407	43.9453	70.4713	43.9453	69.8931	43.9453	70.7548	43.9453	70.1812	43.9453	70.9985	43.9453	70.4813	43.9453	71.1871	43.9453	70.7669	43.9453	71.308	43.9453	71.0134	43.9453	71.3525	43.9453	71.2012	43.9453	71.3166
45.4102	70.198	45.4102	70.1333	45.4102	70.2608	45.4102	70.0755	45.4102	70.315	45.4102	70.0353	45.4102	70.3568	45.4102	70.0239	45.4102	70.3857	45.4102	70.0521	45.4102	70.4048	45.4102	70.1284	45.4102	70.4208	45.4102	70.2573	45.4102	70.4442	45.4102	70.4383	45.4102	70.488	45.4102	70.665	45.4102	70.5658	45.4102	70.9262	45.4102	70.6886	45.4102	71.2064	45.4102	70.861	45.4102	71.4883	45.4102	71.0788	45.4102	71.7536	45.4102	71.3288	45.4102	71.9851	45.4102	71.5906	45.4102	72.1676	45.4102	71.8407	45.4102	72.2886	45.4102	72.0566	45.4102	72.3394	45.4102	72.2193	45.4102	72.316
46.875	71.263	46.875	71.1957	46.875	71.3286	46.875	71.1346	46.875	71.3865	46.875	71.0892	46.875	71.4333	46.875	71.0697	46.875	71.4685	46.875	71.0859	46.875	71.4943	46.875	71.1459	46.875	71.5166	46.875	71.2544	46.875	71.5442	46.875	71.412	46.875	71.5881	46.875	71.6139	46.875	71.6601	46.875	71.8504	46.875	71.7699	46.875	72.1081	46.875	71.9218	46.875	72.3708	46.875	72.113	46.875	72.6214	46.875	72.3323	46.875	72.8432	46.875	72.5623	46.875	73.0214	46.875	72.782	46.875	73.1435	46.875	72.9706	46.875	73.201	46.875	73.1107	46.875	73.1897
48.3398	72.0787	48.3398	72.014	48.3398	72.1432	48.3398	71.9563	48.3398	72.2021	48.3398	71.9142	48.3398	72.2522	48.3398	71.8966	48.3398	72.2928	48.3398	71.9123	48.3398	72.3258	48.3398	71.9686	48.3398	72.3559	48.3398	72.0699	48.3398	72.3906	48.3398	72.2167	48.3398	72.4394	48.3398	72.4052	48.3398	72.5122	48.3398	72.6268	48.3398	72.6175	48.3398	72.8694	48.3398	72.7594	48.3398	73.1181	48.3398	72.9355	48.3398	73.3568	48.3398	73.1365	48.3398	73.5697	48.3398	73.3469	48.3398	73.7422	48.3398	73.5477	48.3398	73.8624	48.3398	73.7197	48.3398	73.9217	48.3398	73.8466	48.3398	73.9161
51.2695	73.3131	51.2695	73.2515	51.2695	73.3754	51.2695	73.1965	51.2695	73.434	51.2695	73.1551	51.2695	73.4861	51.2695	73.1345	51.2695	73.5308	51.2695	73.142	51.2695	73.5694	51.2695	73.1835	51.2695	73.6053	51.2695	73.2629	51.2695	73.6441	51.2695	73.3813	51.2695	73.6927	51.2695	73.5358	51.2695	73.7586	51.2695	73.7202	51.2695	73.8481	51.2695	73.9247	51.2695	73.9642	51.2695	74.137	51.2695	74.1054	51.2695	74.3435	51.2695	74.2648	51.2695	74.5303	51.2695	74.4303	51.2695	74.6847	51.2695	74.5872	51.2695	74.7959	51.2695	74.72	51.2695	74.8564	51.2695	74.8152	51.2695	74.8625
52.7344	73.9708	52.7344	73.9143	52.7344	74.0285	52.7344	73.8642	52.7344	74.0834	52.7344	73.8266	52.7344	74.133	52.7344	73.8079	52.7344	74.1764	52.7344	73.8143	52.7344	74.2147	52.7344	73.8509	52.7344	74.2507	52.7344	73.9213	52.7344	74.2889	52.7344	74.0263	52.7344	74.3354	52.7344	74.1636	52.7344	74.3963	52.7344	74.3276	52.7344	74.4768	52.7344	74.5099	52.7344	74.5795	52.7344	74.6997	52.7344	74.7031	52.7344	74.8847	52.7344	74.8417	52.7344	75.0526	52.7344	74.9851	52.7344	75.1918	52.7344	75.1208	52.7344	75.2927	52.7344	75.2354	52.7344	75.3486	52.7344	75.3169	52.7344	75.3564
54.1992	74.6283	54.1992	74.578	54.1992	74.6795	54.1992	74.533	54.1992	74.7282	54.1992	74.4984	54.1992	74.772	54.1992	74.4798	54.1992	74.8104	54.1992	74.4825	54.1992	74.844	54.1992	74.5112	54.1992	74.8752	54.1992	74.5688	54.1992	74.9078	54.1992	74.6563	54.1992	74.9467	54.1992	74.7719	54.1992	74.9971	54.1992	74.9112	54.1992	75.0633	54.1992	75.0668	54.1992	75.1477	54.1992	75.2295	54.1992	75.2493	54.1992	75.3885	54.1992	75.3636	54.1992	75.5329	54.1992	75.4825	54.1992	75.6527	54.1992	75.5955	54.1992	75.7393	54.1992	75.6916	54.1992	75.7872	54.1992	75.7603	54.1992	75.7938
55.6641	75.2733	55.6641	75.2263	55.6641	75.3212	55.6641	75.1843	55.6641	75.367	55.6641	75.1517	55.6641	75.4087	55.6641	75.1334	55.6641	75.4456	55.6641	75.134	55.6641	75.4781	55.6641	75.1576	55.6641	75.5081	55.6641	75.2069	55.6641	75.5386	55.6641	75.2827	55.6641	75.5736	55.6641	75.3835	55.6641	75.6172	55.6641	75.5053	55.6641	75.6732	55.6641	75.6417	55.6641	75.7434	55.6641	75.7843	55.6641	75.8275	55.6641	75.9238	55.6641	75.9218	55.6641	76.0503	55.6641	76.02	55.6641	76.1551	55.6641	76.1138	55.6641	76.2308	55.6641	76.1938	55.6641	76.2727	55.6641	76.2513	55.6641	76.2791
58.5938	76.7856	58.5938	76.7447	58.5938	76.8294	58.5938	76.7097	58.5938	76.8735	58.5938	76.6839	58.5938	76.9161	58.5938	76.6708	58.5938	76.956	58.5938	76.6736	58.5938	76.9929	58.5938	76.6951	58.5938	77.0274	58.5938	76.7368	58.5938	77.0609	58.5938	76.7992	58.5938	77.0956	58.5938	76.8809	58.5938	77.1338	58.5938	76.9788	58.5938	77.178	58.5938	77.0879	58.5938	77.2297	58.5938	77.2017	58.5938	77.2892	58.5938	77.3129	58.5938	77.3547	58.5938	77.4138	58.5938	77.4226	58.5938	77.4976	58.5938	77.4876	58.5938	77.5586	58.5938	77.5432	58.5938	77.5934	58.5938	77.5829	58.5938	77.6009
60.0586	77.4495	60.0586	77.4104	60.0586	77.4925	60.0586	77.3778	60.0586	77.5372	60.0586	77.3547	60.0586	77.5818	60.0586	77.344	60.0586	77.625	60.0586	77.3482	60.0586	77.6663	60.0586	77.3697	60.0586	77.7057	60.0586	77.4099	60.0586	77.744	60.0586	77.4689	60.0586	77.7827	60.0586	77.5458	60.0586	77.8234	60.0586	77.6377	60.0586	77.868	60.0586	77.7402	60.0586	77.9178	60.0586	77.8475	60.0586	77.9728	60.0586	77.9531	60.0586	78.0319	60.0586	78.0498	60.0586	78.092	60.0586	78.1312	60.0586	78.1485	60.0586	78.192	60.0586	78.1958	60.0586	78.2287	60.0586	78.2282	60.0586	78.2403
62.9883	78.5723	62.9883	78.5403	62.9883	78.612	62.9883	78.5178	62.9883	78.6578	62.9883	78.5064	62.9883	78.7082	62.9883	78.5077	62.9883	78.7619	62.9883	78.5234	62.9883	78.8178	62.9883	78.5546	62.9883	78.8752	62.9883	78.6019	62.9883	78.9334	62.9883	78.6651	62.9883	78.9925	62.9883	78.7434	62.9883	79.0523	62.9883	78.8343	62.9883	79.1132	62.9883	78.9345	62.9883	79.1751	62.9883	79.0395	62.9883	79.2372	62.9883	79.1436	62.9883	79.2981	62.9883	79.241	62.9883	79.355	62.9883	79.3258	62.9883	79.4042	62.9883	79.3929	62.9883	79.4412	62.9883	79.4387	62.9883	79.4615	62.9883	79.4615
64.4531	78.931	64.4531	78.9003	64.4531	78.9699	64.4531	78.879	64.4531	79.0155	64.4531	78.8685	64.4531	79.0666	64.4531	78.87	64.4531	79.1217	64.4531	78.8845	64.4531	79.1796	64.4531	78.9129	64.4531	79.2391	64.4531	78.9556	64.4531	79.2993	64.4531	79.0127	64.4531	79.3594	64.4531	79.0832	64.4531	79.4189	64.4531	79.1653	64.4531	79.4776	64.4531	79.2563	64.4531	79.5351	64.4531	79.3523	64.4531	79.5907	64.4531	79.4485	64.4531	79.6431	64.4531	79.5396	64.4531	79.6902	64.4531	79.6205	64.4531	79.7291	64.4531	79.6863	64.4531	79.7561	64.4531	79.7337	64.4531	79.7677	64.4531	79.7608
67.3828	79.3717	67.3828	79.3427	67.3828	79.409	67.3828	79.3231	67.3828	79.4539	67.3828	79.3136	67.3828	79.5049	67.3828	79.3146	67.3828	79.5608	67.3828	79.3268	67.3828	79.62	67.3828	79.3505	67.3828	79.6807	67.3828	79.3859	67.3828	79.7413	67.3828	79.4328	67.3828	79.8004	67.3828	79.4908	67.3828	79.8567	67.3828	79.5584	67.3828	79.9094	67.3828	79.6338	67.3828	79.9576	67.3828	79.7141	67.3828	80.0009	67.3828	79.7958	67.3828	80.0385	67.3828	79.8746	67.3828	80.0692	67.3828	79.9465	67.3828	80.0915	67.3828	80.0075	67.3828	80.1033	67.3828	80.0546	67.3828	80.1021	67.3828	80.0863
