"SPL Horizontal"
"On-Axis"		"10°"		"-10°"		"20°"		"-20°"		"30°"		"-30°"		"40°"		"-40°"		"50°"		"-50°"		"60°"		"-60°"		"70°"		"-70°"		"80°"		"-80°"		"90°"		"-90°"		"100°"		"-100°"		"110°"		"-110°"		"120°"		"-120°"		"130°"		"-130°"		"140°"		"-140°"		"150°"		"-150°"		"160°"		"-160°"		"170°"		"-170°"		"180°"
"Frequency / Hz"	"Sound Pressure Level / dB (re 20 µPa/V)  [2.83  V @ 1. m]"	"Frequency / Hz"	"Sound Pressure Level / dB (re 20 µPa/V)  [2.83  V @ 1. m]"	"Frequency / Hz"	"Sound Pressure Level / dB (re 20 µPa/V)  [2.83  V @ 1. m]"	"Frequency / Hz"	"Sound Pressure Level / dB (re 20 µPa/V)  [2.83  V @ 1. m]"	"Frequency / Hz"	"Sound Pressure Level / dB (re 20 µPa/V)  [2.83  V @ 1. m]"	"Frequency / Hz"	"Sound Pressure Level / dB (re 20 µPa/V)  [2.83  V @ 1. m]"	"Frequency / Hz"	"Sound Pressure Level / dB (re 20 µPa/V)  [2.83  V @ 1. m]"	"Frequency / Hz"	"Sound Pressure Level / dB (re 20 µPa/V)  [2.83  V @ 1. m]"	"Frequency / Hz"	"Sound Pressure Level / dB (re 20 µPa/V)  [2.83  V @ 1. m]"	"Frequency / Hz"	"Sound Pressure Level / dB (re 20 µPa/V)  [2.83  V @ 1. m]"	"Frequency / Hz"	"Sound Pressure Level / dB (re 20 µPa/V)  [2.83  V @ 1. m]"	"Frequency / Hz"	"Sound Pressure Level / dB (re 20 µPa/V)  [2.83  V @ 1. m]"	"Frequency / Hz"	"Sound Pressure Level / dB (re 20 µPa/V)  [2.83  V @ 1. m]"	"Frequency / Hz"	"Sound Pressure Level / dB (re 20 µPa/V)  [2.83  V @ 1. m]"	"Frequency / Hz"	"Sound Pressure Level / dB (re 20 µPa/V)  [2.83  V @ 1. m]"	"Frequency / Hz"	"Sound Pressure Level / dB (re 20 µPa/V)  [2.83  V @ 1. m]"	"Frequency / Hz"	"Sound Pressure Level / dB (re 20 µPa/V)  [2.83  V @ 1. m]"	"Frequency / Hz"	"Sound Pressure Level / dB (re 20 µPa/V)  [2.83  V @ 1. m]"	"Frequency / Hz"	"Sound Pressure Level / dB (re 20 µPa/V)  [2.83  V @ 1. m]"	"Frequency / Hz"	"Sound Pressure Level / dB (re 20 µPa/V)  [2.83  V @ 1. m]"	"Frequency / Hz"	"Sound Pressure Level / dB (re 20 µPa/V)  [2.83  V @ 1. m]"	"Frequency / Hz"	"Sound Pressure Level / dB (re 20 µPa/V)  [2.83  V @ 1. m]"	"Frequency / Hz"	"Sound Pressure Level / dB (re 20 µPa/V)  [2.83  V @ 1. m]"	"Frequency / Hz"	"Sound Pressure Level / dB (re 20 µPa/V)  [2.83  V @ 1. m]"	"Frequency / Hz"	"Sound Pressure Level / dB (re 20 µPa/V)  [2.83  V @ 1. m]"	"Frequency / Hz"	"Sound Pressure Level / dB (re 20 µPa/V)  [2.83  V @ 1. m]"	"Frequency / Hz"	"Sound Pressure Level / dB (re 20 µPa/V)  [2.83  V @ 1. m]"	"Frequency / Hz"	"Sound Pressure Level / dB (re 20 µPa/V)  [2.83  V @ 1. m]"	"Frequency / Hz"	"Sound Pressure Level / dB (re 20 µPa/V)  [2.83  V @ 1. m]"	"Frequency / Hz"	"Sound Pressure Level / dB (re 20 µPa/V)  [2.83  V @ 1. m]"	"Frequency / Hz"	"Sound Pressure Level / dB (re 20 µPa/V)  [2.83  V @ 1. m]"	"Frequency / Hz"	"Sound Pressure Level / dB (re 20 µPa/V)  [2.83  V @ 1. m]"	"Frequency / Hz"	"Sound Pressure Level / dB (re 20 µPa/V)  [2.83  V @ 1. m]"	"Frequency / Hz"	"Sound Pressure Level / dB (re 20 µPa/V)  [2.83  V @ 1. m]"	"Frequency / Hz"	"Sound Pressure Level / dB (re 20 µPa/V)  [2.83  V @ 1. m]"	"Frequency / Hz"	"Sound Pressure Level / dB (re 20 µPa/V)  [2.83  V @ 1. m]"
20.5078	41.3747	20.5078	41.1269	20.5078	41.5617	20.5078	40.8142	20.5078	41.6897	20.5078	40.4298	20.5078	41.7582	20.5078	39.9675	20.5078	41.7642	20.5078	39.4257	20.5078	41.7016	20.5078	38.8141	20.5078	41.5613	20.5078	38.1612	20.5078	41.3338	20.5078	37.5194	20.5078	41.0161	20.5078	36.9621	20.5078	40.6197	20.5078	36.5656	20.5078	40.1754	20.5078	36.3812	20.5078	39.7312	20.5078	36.4136	20.5078	39.3383	20.5078	36.6241	20.5078	39.0329	20.5078	36.9502	20.5078	38.8214	20.5078	37.3257	20.5078	38.6803	20.5078	37.6936	20.5078	38.5682	20.5078	38.0128	20.5078	38.4405	20.5078	38.2619
21.9727	38.9923	21.9727	38.7363	21.9727	39.1211	21.9727	38.3434	21.9727	39.1414	21.9727	37.813	21.9727	39.0843	21.9727	37.1637	21.9727	38.9992	21.9727	36.4606	21.9727	38.9567	21.9727	35.8673	21.9727	39.043	21.9727	35.6711	21.9727	39.3379	21.9727	36.1343	21.9727	39.88	21.9727	37.221	21.9727	40.6436	21.9727	38.6332	21.9727	41.5503	21.9727	40.0912	21.9727	42.5032	21.9727	41.4448	21.9727	43.4167	21.9727	42.6347	21.9727	44.2281	21.9727	43.6424	21.9727	44.8966	21.9727	44.4631	21.9727	45.3976	21.9727	45.0952	21.9727	45.7174	21.9727	45.5376	21.9727	45.8489	21.9727	45.7891
23.4375	40.3175	23.4375	40.1649	23.4375	40.2195	23.4375	39.7451	23.4375	39.8702	23.4375	39.02	23.4375	39.2494	23.4375	37.9201	23.4375	38.3077	23.4375	36.3198	23.4375	36.9453	23.4375	33.9878	23.4375	34.9595	23.4375	30.5199	23.4375	31.901	23.4375	26.2394	23.4375	26.6031	23.4375	27.8731	23.4375	21.2193	23.4375	32.6727	23.4375	29.1247	23.4375	36.1966	23.4375	34.2503	23.4375	38.7232	23.4375	37.5249	23.4375	40.5929	23.4375	39.8233	23.4375	41.9883	23.4375	41.4925	23.4375	43.0068	23.4375	42.6958	23.4375	43.7001	23.4375	43.5194	23.4375	44.094	23.4375	44.0113	23.4375	44.1985
24.9023	42.0505	24.9023	41.8254	24.9023	42.1231	24.9023	41.4709	24.9023	42.0401	24.9023	41.0443	24.9023	41.8176	24.9023	40.6618	24.9023	41.5	24.9023	40.5105	24.9023	41.1774	24.9023	40.7875	24.9023	40.9948	24.9023	41.5551	24.9023	41.1217	24.9023	42.6807	24.9023	41.6578	24.9023	43.9534	24.9023	42.557	24.9023	45.2085	24.9023	43.6682	24.9023	46.354	24.9023	44.8369	24.9023	47.3482	24.9023	45.9568	24.9023	48.1753	24.9023	46.9685	24.9023	48.8306	24.9023	47.8417	24.9023	49.3131	24.9023	48.5608	24.9023	49.6221	24.9023	49.1166	24.9023	49.7571	24.9023	49.5033	24.9023	49.7174
26.3672	51.4887	26.3672	51.4431	26.3672	51.3935	26.3672	51.2676	26.3672	51.1564	26.3672	50.9853	26.3672	50.7873	26.3672	50.6397	26.3672	50.3163	26.3672	50.3055	26.3672	49.8099	26.3672	50.0923	26.3672	49.3886	26.3672	50.1231	26.3672	49.2232	26.3672	50.4759	26.3672	49.4653	26.3672	51.1309	26.3672	50.1364	26.3672	51.9841	26.3672	51.1084	26.3672	52.9111	26.3672	52.2023	26.3672	53.8138	26.3672	53.2768	26.3672	54.6302	26.3672	54.2467	26.3672	55.325	26.3672	55.0674	26.3672	55.8783	26.3672	55.7175	26.3672	56.2781	26.3672	56.1878	26.3672	56.5156	26.3672	56.4759	26.3672	56.5836
27.832	54.6807	27.832	54.7215	27.832	54.6554	27.832	54.7797	27.832	54.6486	27.832	54.8625	27.832	54.6689	27.832	54.9802	27.832	54.7295	27.832	55.145	27.832	54.8462	27.832	55.3679	27.832	55.0346	27.832	55.6555	27.832	55.3054	27.832	56.0076	27.832	55.6604	27.832	56.4153	27.832	56.0898	27.832	56.862	27.832	56.573	27.832	57.3255	27.832	57.0823	27.832	57.7816	27.832	57.588	27.832	58.2072	27.832	58.0622	27.832	58.5824	27.832	58.4813	27.832	58.8909	27.832	58.8265	27.832	59.1199	27.832	59.0836	27.832	59.2594	27.832	59.2435	27.832	59.302
29.2969	60.3197	29.2969	60.3193	29.2969	60.318	29.2969	60.3177	29.2969	60.3168	29.2969	60.3194	29.2969	60.3227	29.2969	60.3315	29.2969	60.345	29.2969	60.364	29.2969	60.3955	29.2969	60.4278	29.2969	60.4859	29.2969	60.5335	29.2969	60.6255	29.2969	60.689	29.2969	60.8183	29.2969	60.8973	29.2969	61.0621	29.2969	61.1548	29.2969	61.3474	29.2969	61.451	29.2969	61.6592	29.2969	61.7694	29.2969	61.9792	29.2969	62.0897	29.2969	62.2876	29.2969	62.391	29.2969	62.565	29.2969	62.6538	29.2969	62.7939	29.2969	62.8616	29.2969	62.9599	29.2969	63.0021	29.2969	63.0529	29.2969	63.0672
30.7617	64.5308	30.7617	64.5243	30.7617	64.5446	30.7617	64.5258	30.7617	64.5668	30.7617	64.5378	30.7617	64.6	30.7617	64.5644	30.7617	64.6484	30.7617	64.6109	30.7617	64.7168	30.7617	64.683	30.7617	64.81	30.7617	64.786	30.7617	64.9318	30.7617	64.9235	30.7617	65.0839	30.7617	65.0959	30.7617	65.2653	30.7617	65.2999	30.7617	65.4713	30.7617	65.5281	30.7617	65.6941	30.7617	65.7697	30.7617	65.9232	30.7617	66.0113	30.7617	66.1462	30.7617	66.2384	30.7617	66.35	30.7617	66.4364	30.7617	66.5217	30.7617	66.5923	30.7617	66.6497	30.7617	66.6959	30.7617	66.7246	30.7617	66.7407
32.2266	67.2761	32.2266	67.2733	32.2266	67.2916	32.2266	67.284	32.2266	67.3198	32.2266	67.3098	32.2266	67.3615	32.2266	67.3529	32.2266	67.4182	32.2266	67.4155	32.2266	67.4919	32.2266	67.4997	32.2266	67.5845	32.2266	67.6066	32.2266	67.6977	32.2266	67.7361	32.2266	67.832	32.2266	67.8867	32.2266	67.9862	32.2266	68.0553	32.2266	68.1571	32.2266	68.2372	32.2266	68.3392	32.2266	68.4259	32.2266	68.5249	32.2266	68.6131	32.2266	68.705	32.2266	68.7891	32.2266	68.8695	32.2266	68.9433	32.2266	69.0081	32.2266	69.0658	32.2266	69.1112	32.2266	69.1481	32.2266	69.1715	32.2266	69.1841
33.6914	70.0986	33.6914	70.1139	33.6914	70.0962	33.6914	70.142	33.6914	70.1068	33.6914	70.1833	33.6914	70.1314	33.6914	70.2384	33.6914	70.1712	33.6914	70.3079	33.6914	70.2281	33.6914	70.3922	33.6914	70.3037	33.6914	70.4915	33.6914	70.3994	33.6914	70.6055	33.6914	70.5153	33.6914	70.7328	33.6914	70.6502	33.6914	70.8711	33.6914	70.8006	33.6914	71.0167	33.6914	70.9611	33.6914	71.1643	33.6914	71.1248	33.6914	71.3078	33.6914	71.2834	33.6914	71.4401	33.6914	71.4282	33.6914	71.554	33.6914	71.5507	33.6914	71.6424	33.6914	71.6434	33.6914	71.6991	33.6914	71.7007	33.6914	71.7194
35.1562	72.4443	35.1562	72.4473	35.1562	72.4496	35.1562	72.4586	35.1562	72.4634	35.1562	72.4782	35.1562	72.4859	35.1562	72.5061	35.1562	72.5172	35.1562	72.5424	35.1562	72.5574	35.1562	72.5872	35.1562	72.6065	35.1562	72.6404	35.1562	72.6644	35.1562	72.7019	35.1562	72.7307	35.1562	72.7711	35.1562	72.805	35.1562	72.847	35.1562	72.886	35.1562	72.9279	35.1562	72.9718	35.1562	73.0117	35.1562	73.0594	35.1562	73.0953	35.1562	73.1447	35.1562	73.1751	35.1562	73.2228	35.1562	73.2467	35.1562	73.2885	35.1562	73.3053	35.1562	73.3366	35.1562	73.3465	35.1562	73.3633	35.1562	73.3666
36.6211	73.4397	36.6211	73.4419	36.6211	73.4447	36.6211	73.4512	36.6211	73.4568	36.6211	73.4678	36.6211	73.4764	36.6211	73.4917	36.6211	73.5038	36.6211	73.5234	36.6211	73.5393	36.6211	73.563	36.6211	73.583	36.6211	73.6111	36.6211	73.635	36.6211	73.6676	36.6211	73.6953	36.6211	73.7322	36.6211	73.7632	36.6211	73.8042	36.6211	73.8378	36.6211	73.8818	36.6211	73.9172	36.6211	73.9626	36.6211	73.9987	36.6211	74.0433	36.6211	74.0785	36.6211	74.1198	36.6211	74.152	36.6211	74.1874	36.6211	74.2144	36.6211	74.2416	36.6211	74.2611	36.6211	74.2783	36.6211	74.2885	36.6211	74.2944
38.0859	74.2003	38.0859	74.2112	38.0859	74.1965	38.0859	74.2293	38.0859	74.2	38.0859	74.2546	38.0859	74.2111	38.0859	74.2874	38.0859	74.2301	38.0859	74.3277	38.0859	74.2574	38.0859	74.3757	38.0859	74.2934	38.0859	74.4311	38.0859	74.3382	38.0859	74.4936	38.0859	74.3917	38.0859	74.5621	38.0859	74.4537	38.0859	74.6352	38.0859	74.5231	38.0859	74.7108	38.0859	74.5987	38.0859	74.786	38.0859	74.6781	38.0859	74.8575	38.0859	74.7584	38.0859	74.9214	38.0859	74.8355	38.0859	74.9736	38.0859	74.905	38.0859	75.0103	38.0859	74.9625	38.0859	75.0285	38.0859	75.0039	38.0859	75.0264
39.5508	75.2456	39.5508	75.2578	39.5508	75.2436	39.5508	75.2803	39.5508	75.2521	39.5508	75.3124	39.5508	75.271	39.5508	75.3538	39.5508	75.2999	39.5508	75.4039	39.5508	75.3385	39.5508	75.4616	39.5508	75.3861	39.5508	75.5262	39.5508	75.4422	39.5508	75.5962	39.5508	75.5057	39.5508	75.6702	39.5508	75.5756	39.5508	75.7464	39.5508	75.6504	39.5508	75.8227	39.5508	75.7282	39.5508	75.8968	39.5508	75.807	39.5508	75.9657	39.5508	75.884	39.5508	76.0263	39.5508	75.9561	39.5508	76.0755	39.5508	76.0198	39.5508	76.1101	39.5508	76.0715	39.5508	76.1278	39.5508	76.108	39.5508	76.1272
41.0156	76.5297	41.0156	76.5431	41.0156	76.5261	41.0156	76.566	41.0156	76.5322	41.0156	76.5978	41.0156	76.5478	41.0156	76.6377	41.0156	76.5725	41.0156	76.6846	41.0156	76.6058	41.0156	76.7372	41.0156	76.6473	41.0156	76.7941	41.0156	76.6961	41.0156	76.8538	41.0156	76.7515	41.0156	76.9145	41.0156	76.8122	41.0156	76.9748	41.0156	76.8769	41.0156	77.0336	41.0156	76.9437	41.0156	77.0896	41.0156	77.0108	41.0156	77.1418	41.0156	77.0757	41.0156	77.1885	41.0156	77.136	41.0156	77.2275	41.0156	77.1887	41.0156	77.2563	41.0156	77.2308	41.0156	77.2724	41.0156	77.2597	41.0156	77.2738
42.4805	77.5525	42.4805	77.5621	42.4805	77.55	42.4805	77.5786	42.4805	77.5549	42.4805	77.6014	42.4805	77.5671	42.4805	77.63	42.4805	77.5863	42.4805	77.6636	42.4805	77.6121	42.4805	77.7015	42.4805	77.644	42.4805	77.743	42.4805	77.6814	42.4805	77.7874	42.4805	77.7234	42.4805	77.8339	42.4805	77.769	42.4805	77.8816	42.4805	77.8173	42.4805	77.9295	42.4805	77.867	42.4805	77.9762	42.4805	77.9168	42.4805	78.02	42.4805	77.9653	42.4805	78.0585	42.4805	78.0107	42.4805	78.0897	42.4805	78.051	42.4805	78.1114	42.4805	78.0841	42.4805	78.1221	42.4805	78.108	42.4805	78.1209
43.9453	78.1441	43.9453	78.154	43.9453	78.14	43.9453	78.1695	43.9453	78.1423	43.9453	78.1899	43.9453	78.1512	43.9453	78.215	43.9453	78.1666	43.9453	78.2444	43.9453	78.1886	43.9453	78.2777	43.9453	78.2168	43.9453	78.3147	43.9453	78.2506	43.9453	78.3548	43.9453	78.2894	43.9453	78.3977	43.9453	78.3324	43.9453	78.4425	43.9453	78.3785	43.9453	78.4881	43.9453	78.4265	43.9453	78.533	43.9453	78.4753	43.9453	78.5754	43.9453	78.5231	43.9453	78.6129	43.9453	78.5681	43.9453	78.6434	43.9453	78.608	43.9453	78.665	43.9453	78.6406	43.9453	78.6761	43.9453	78.6636	43.9453	78.6757
45.4102	78.6071	45.4102	78.6077	45.4102	78.6147	45.4102	78.6165	45.4102	78.6306	45.4102	78.6332	45.4102	78.6545	45.4102	78.6573	45.4102	78.6862	45.4102	78.6883	45.4102	78.7252	45.4102	78.7255	45.4102	78.7707	45.4102	78.7679	45.4102	78.8218	45.4102	78.8146	45.4102	78.8772	45.4102	78.8647	45.4102	78.9353	45.4102	78.9171	45.4102	78.9943	45.4102	78.9708	45.4102	79.0525	45.4102	79.0245	45.4102	79.1075	45.4102	79.077	45.4102	79.1573	45.4102	79.1264	45.4102	79.1996	45.4102	79.171	45.4102	79.232	45.4102	79.2088	45.4102	79.2528	45.4102	79.2376	45.4102	79.2607	45.4102	79.2554
46.875	78.7262	46.875	78.7252	46.875	78.7395	46.875	78.7365	46.875	78.7649	46.875	78.7598	46.875	78.8019	46.875	78.7942	46.875	78.8498	46.875	78.8389	46.875	78.9078	46.875	78.8924	46.875	78.9746	46.875	78.9533	46.875	79.0488	46.875	79.0202	46.875	79.1286	46.875	79.0915	46.875	79.2119	46.875	79.1658	46.875	79.2963	46.875	79.2416	46.875	79.3789	46.875	79.3174	46.875	79.4565	46.875	79.3913	46.875	79.5258	46.875	79.4613	46.875	79.5833	46.875	79.5249	46.875	79.6261	46.875	79.5793	46.875	79.652	46.875	79.6217	46.875	79.6597	46.875	79.6492
48.3398	79.4219	48.3398	79.4567	48.3398	79.3905	48.3398	79.4939	48.3398	79.3637	48.3398	79.5321	48.3398	79.3425	48.3398	79.5702	48.3398	79.3276	48.3398	79.6069	48.3398	79.3196	48.3398	79.6412	48.3398	79.3187	48.3398	79.6719	48.3398	79.3248	48.3398	79.6981	48.3398	79.3374	48.3398	79.7189	48.3398	79.3555	48.3398	79.7337	48.3398	79.3781	48.3398	79.7418	48.3398	79.4041	48.3398	79.7428	48.3398	79.4326	48.3398	79.7369	48.3398	79.463	48.3398	79.7245	48.3398	79.4948	48.3398	79.7063	48.3398	79.5276	48.3398	79.6832	48.3398	79.561	48.3398	79.6562	48.3398	79.5941	48.3398	79.6262
51.2695	80.7767	51.2695	80.7803	51.2695	80.768	51.2695	80.7782	51.2695	80.7546	51.2695	80.77	51.2695	80.7371	51.2695	80.7556	51.2695	80.716	51.2695	80.7351	51.2695	80.6915	51.2695	80.709	51.2695	80.664	51.2695	80.6781	51.2695	80.6337	51.2695	80.6432	51.2695	80.6009	51.2695	80.6054	51.2695	80.5658	51.2695	80.566	51.2695	80.5288	51.2695	80.5258	51.2695	80.4905	51.2695	80.4862	51.2695	80.4522	51.2695	80.4482	51.2695	80.4156	51.2695	80.4131	51.2695	80.3828	51.2695	80.3822	51.2695	80.3561	51.2695	80.3569	51.2695	80.3375	51.2695	80.3386	51.2695	80.3282	51.2695	80.3287
52.7344	80.8969	52.7344	80.8793	52.7344	80.9141	52.7344	80.8617	52.7344	80.9308	52.7344	80.844	52.7344	80.9465	52.7344	80.8267	52.7344	80.9609	52.7344	80.8101	52.7344	80.9733	52.7344	80.7944	52.7344	80.9833	52.7344	80.7803	52.7344	80.9901	52.7344	80.7681	52.7344	80.9931	52.7344	80.7583	52.7344	80.9917	52.7344	80.7515	52.7344	80.9856	52.7344	80.7481	52.7344	80.975	52.7344	80.7486	52.7344	80.9602	52.7344	80.7533	52.7344	80.942	52.7344	80.7621	52.7344	80.9213	52.7344	80.7748	52.7344	80.8988	52.7344	80.7908	52.7344	80.8757	52.7344	80.8095	52.7344	80.8526	52.7344	80.8303
54.1992	80.9394	54.1992	80.9391	54.1992	80.9398	54.1992	80.9389	54.1992	80.9404	54.1992	80.9388	54.1992	80.9414	54.1992	80.9391	54.1992	80.9429	54.1992	80.9398	54.1992	80.9452	54.1992	80.9411	54.1992	80.9483	54.1992	80.9431	54.1992	80.9522	54.1992	80.9456	54.1992	80.9569	54.1992	80.9486	54.1992	80.9622	54.1992	80.9523	54.1992	80.9679	54.1992	80.9568	54.1992	80.974	54.1992	80.9623	54.1992	80.9801	54.1992	80.9688	54.1992	80.9862	54.1992	80.9762	54.1992	80.9918	54.1992	80.9837	54.1992	80.9964	54.1992	80.9906	54.1992	80.9994	54.1992	80.996	54.1992	81.0005	54.1992	80.9994
55.6641	81.2562	55.6641	81.2825	55.6641	81.2288	55.6641	81.3072	55.6641	81.2009	55.6641	81.3297	55.6641	81.1728	55.6641	81.3494	55.6641	81.1451	55.6641	81.3654	55.6641	81.1182	55.6641	81.377	55.6641	81.0924	55.6641	81.383	55.6641	81.0683	55.6641	81.3825	55.6641	81.0465	55.6641	81.375	55.6641	81.0277	55.6641	81.3601	55.6641	81.0129	55.6641	81.3383	55.6641	81.003	55.6641	81.3102	55.6641	80.9985	55.6641	81.2774	55.6641	80.9999	55.6641	81.2411	55.6641	81.0072	55.6641	81.2031	55.6641	81.0206	55.6641	81.1649	55.6641	81.0397	55.6641	81.1281	55.6641	81.0644	55.6641	81.0942
58.5938	81.6605	58.5938	81.6488	58.5938	81.6756	58.5938	81.6408	58.5938	81.6936	58.5938	81.6365	58.5938	81.7136	58.5938	81.6356	58.5938	81.7346	58.5938	81.6377	58.5938	81.7555	58.5938	81.6421	58.5938	81.7753	58.5938	81.6482	58.5938	81.7928	58.5938	81.6555	58.5938	81.8072	58.5938	81.663	58.5938	81.8176	58.5938	81.6701	58.5938	81.8232	58.5938	81.6762	58.5938	81.8236	58.5938	81.6811	58.5938	81.8186	58.5938	81.6849	58.5938	81.8084	58.5938	81.6884	58.5938	81.7939	58.5938	81.6928	58.5938	81.7763	58.5938	81.6994	58.5938	81.7574	58.5938	81.7091	58.5938	81.7389	58.5938	81.7224
60.0586	82.1517	60.0586	82.1297	60.0586	82.1672	60.0586	82.1015	60.0586	82.1762	60.0586	82.0678	60.0586	82.1789	60.0586	82.0295	60.0586	82.1757	60.0586	81.9877	60.0586	82.167	60.0586	81.9436	60.0586	82.1532	60.0586	81.8987	60.0586	82.1346	60.0586	81.8543	60.0586	82.111	60.0586	81.8119	60.0586	82.0823	60.0586	81.7727	60.0586	82.048	60.0586	81.7376	60.0586	82.008	60.0586	81.7075	60.0586	81.9625	60.0586	81.6832	60.0586	81.9131	60.0586	81.6658	60.0586	81.8617	60.0586	81.6567	60.0586	81.811	60.0586	81.6574	60.0586	81.764	60.0586	81.6688	60.0586	81.7233	60.0586	81.691
62.9883	82.6634	62.9883	82.6707	62.9883	82.6492	62.9883	82.6705	62.9883	82.6286	62.9883	82.6622	62.9883	82.6019	62.9883	82.6451	62.9883	82.5692	62.9883	82.6187	62.9883	82.5307	62.9883	82.5831	62.9883	82.4863	62.9883	82.5383	62.9883	82.4362	62.9883	82.485	62.9883	82.3808	62.9883	82.4244	62.9883	82.3208	62.9883	82.3582	62.9883	82.2575	62.9883	82.2883	62.9883	82.1925	62.9883	82.2174	62.9883	82.1281	62.9883	82.1481	62.9883	82.0673	62.9883	82.0834	62.9883	82.0134	62.9883	82.0263	62.9883	81.9698	62.9883	81.9796	62.9883	81.9395	62.9883	81.9458	62.9883	81.925	62.9883	81.9272
64.4531	82.6917	64.4531	82.6974	64.4531	82.6818	64.4531	82.6984	64.4531	82.6681	64.4531	82.6941	64.4531	82.6509	64.4531	82.6839	64.4531	82.6302	64.4531	82.6672	64.4531	82.6059	64.4531	82.6436	64.4531	82.5778	64.4531	82.6131	64.4531	82.5455	64.4531	82.576	64.4531	82.5089	64.4531	82.5332	64.4531	82.4681	64.4531	82.4858	64.4531	82.4237	64.4531	82.4353	64.4531	82.3769	64.4531	82.3837	64.4531	82.3293	64.4531	82.3329	64.4531	82.2833	64.4531	82.2851	64.4531	82.2415	64.4531	82.2427	64.4531	82.2069	64.4531	82.2079	64.4531	82.1823	64.4531	82.1829	64.4531	82.1695	64.4531	82.1698
67.3828	82.4824	67.3828	82.4734	67.3828	82.4907	67.3828	82.464	67.3828	82.4979	67.3828	82.4546	67.3828	82.5036	67.3828	82.4455	67.3828	82.5076	67.3828	82.4368	67.3828	82.5098	67.3828	82.4285	67.3828	82.5102	67.3828	82.4204	67.3828	82.5089	67.3828	82.4122	67.3828	82.5059	67.3828	82.4036	67.3828	82.5013	67.3828	82.3946	67.3828	82.4949	67.3828	82.3853	67.3828	82.4867	67.3828	82.3761	67.3828	82.4763	67.3828	82.368	67.3828	82.4635	67.3828	82.3623	67.3828	82.4485	67.3828	82.36	67.3828	82.4316	67.3828	82.3623	67.3828	82.4139	67.3828	82.3695	67.3828	82.3966	67.3828	82.3813
