"SPL Vertical"																																																																							
"On-Axis"		"10°"		"-10°"		"20°"		"-20°"		"30°"		"-30°"		"40°"		"-40°"		"50°"		"-50°"		"60°"		"-60°"		"70°"		"-70°"		"80°"		"-80°"		"90°"		"-90°"		"100°"		"-100°"		"110°"		"-110°"		"120°"		"-120°"		"130°"		"-130°"		"140°"		"-140°"		"150°"		"-150°"		"160°"		"-160°"		"170°"		"-170°"		"180°"	
"Frequency [Hz]"	"Sound Pessure Level [dB]  / [2.83V 1m] "	"Frequency [Hz]"	"Sound Pessure Level [dB]  / [2.83V 1m] "	"Frequency [Hz]"	"Sound Pessure Level [dB]  / [2.83V 1m] "	"Frequency [Hz]"	"Sound Pessure Level [dB]  / [2.83V 1m] "	"Frequency [Hz]"	"Sound Pessure Level [dB]  / [2.83V 1m] "	"Frequency [Hz]"	"Sound Pessure Level [dB]  / [2.83V 1m] "	"Frequency [Hz]"	"Sound Pessure Level [dB]  / [2.83V 1m] "	"Frequency [Hz]"	"Sound Pessure Level [dB]  / [2.83V 1m] "	"Frequency [Hz]"	"Sound Pessure Level [dB]  / [2.83V 1m] "	"Frequency [Hz]"	"Sound Pessure Level [dB]  / [2.83V 1m] "	"Frequency [Hz]"	"Sound Pessure Level [dB]  / [2.83V 1m] "	"Frequency [Hz]"	"Sound Pessure Level [dB]  / [2.83V 1m] "	"Frequency [Hz]"	"Sound Pessure Level [dB]  / [2.83V 1m] "	"Frequency [Hz]"	"Sound Pessure Level [dB]  / [2.83V 1m] "	"Frequency [Hz]"	"Sound Pessure Level [dB]  / [2.83V 1m] "	"Frequency [Hz]"	"Sound Pessure Level [dB]  / [2.83V 1m] "	"Frequency [Hz]"	"Sound Pessure Level [dB]  / [2.83V 1m] "	"Frequency [Hz]"	"Sound Pessure Level [dB]  / [2.83V 1m] "	"Frequency [Hz]"	"Sound Pessure Level [dB]  / [2.83V 1m] "	"Frequency [Hz]"	"Sound Pessure Level [dB]  / [2.83V 1m] "	"Frequency [Hz]"	"Sound Pessure Level [dB]  / [2.83V 1m] "	"Frequency [Hz]"	"Sound Pessure Level [dB]  / [2.83V 1m] "	"Frequency [Hz]"	"Sound Pessure Level [dB]  / [2.83V 1m] "	"Frequency [Hz]"	"Sound Pessure Level [dB]  / [2.83V 1m] "	"Frequency [Hz]"	"Sound Pessure Level [dB]  / [2.83V 1m] "	"Frequency [Hz]"	"Sound Pessure Level [dB]  / [2.83V 1m] "	"Frequency [Hz]"	"Sound Pessure Level [dB]  / [2.83V 1m] "	"Frequency [Hz]"	"Sound Pessure Level [dB]  / [2.83V 1m] "	"Frequency [Hz]"	"Sound Pessure Level [dB]  / [2.83V 1m] "	"Frequency [Hz]"	"Sound Pessure Level [dB]  / [2.83V 1m] "	"Frequency [Hz]"	"Sound Pessure Level [dB]  / [2.83V 1m] "	"Frequency [Hz]"	"Sound Pessure Level [dB]  / [2.83V 1m] "	"Frequency [Hz]"	"Sound Pessure Level [dB]  / [2.83V 1m] "	"Frequency [Hz]"	"Sound Pessure Level [dB]  / [2.83V 1m] "	"Frequency [Hz]"	"Sound Pessure Level [dB]  / [2.83V 1m] "	"Frequency [Hz]"	"Sound Pessure Level [dB]  / [2.83V 1m] "
20.5078	51.2843	20.5078	51.1822	20.5078	51.4865	20.5078	51.1748	20.5078	51.7802	20.5078	51.2464	20.5078	52.1431	20.5078	51.376	20.5078	52.5432	20.5078	51.5422	20.5078	52.9449	20.5078	51.7268	20.5078	53.3139	20.5078	51.9153	20.5078	53.6213	20.5078	52.0977	20.5078	53.8459	20.5078	52.2671	20.5078	53.9749	20.5078	52.4194	20.5078	54.0058	20.5078	52.5521	20.5078	53.9461	20.5078	52.6638	20.5078	53.8139	20.5078	52.754	20.5078	53.6359	20.5078	52.8228	20.5078	53.4439	20.5078	52.8722	20.5078	53.2676	20.5078	52.9069	20.5078	53.1277	20.5078	52.9358	20.5078	53.0312	20.5078	52.9719
21.2402	53.0402	21.2402	52.3426	21.2402	53.7375	21.2402	51.6609	21.2402	54.4175	21.2402	51.0106	21.2402	55.0628	21.2402	50.4055	21.2402	55.6562	21.2402	49.8579	21.2402	56.1807	21.2402	49.3787	21.2402	56.6201	21.2402	48.9779	21.2402	56.9594	21.2402	48.6661	21.2402	57.1849	21.2402	48.4552	21.2402	57.2853	21.2402	48.3594	21.2402	57.2519	21.2402	48.3945	21.2402	57.0793	21.2402	48.5752	21.2402	56.7663	21.2402	48.9113	21.2402	56.3161	21.2402	49.4031	21.2402	55.7372	21.2402	50.0385	21.2402	55.0439	21.2402	50.7928	21.2402	54.2568	21.2402	51.6316	21.2402	53.4029	21.2402	52.5152
21.9727	60.5718	21.9727	60.2632	21.9727	60.9043	21.9727	59.9851	21.9727	61.2524	21.9727	59.7424	21.9727	61.6057	21.9727	59.5389	21.9727	61.9526	21.9727	59.3773	21.9727	62.2803	21.9727	59.2601	21.9727	62.5754	21.9727	59.1894	21.9727	62.8252	21.9727	59.167	21.9727	63.0184	21.9727	59.1947	21.9727	63.1458	21.9727	59.2733	21.9727	63.2012	21.9727	59.4027	21.9727	63.1817	21.9727	59.5815	21.9727	63.0884	21.9727	59.8066	21.9727	62.9255	21.9727	60.0732	21.9727	62.701	21.9727	60.3752	21.9727	62.425	21.9727	60.705	21.9727	62.1097	21.9727	61.0538	21.9727	61.7677	21.9727	61.4117
22.7051	57.9219	22.7051	57.71	22.7051	58.1917	22.7051	57.5576	22.7051	58.5114	22.7051	57.4612	22.7051	58.8668	22.7051	57.4137	22.7051	59.2391	22.7051	57.4066	22.7051	59.6061	22.7051	57.4312	22.7051	59.9453	22.7051	57.4799	22.7051	60.2356	22.7051	57.5466	22.7051	60.4588	22.7051	57.627	22.7051	60.6016	22.7051	57.7183	22.7051	60.6561	22.7051	57.8194	22.7051	60.6207	22.7051	57.9302	22.7051	60.5009	22.7051	58.0519	22.7051	60.3083	22.7051	58.1869	22.7051	60.061	22.7051	58.339	22.7051	59.7803	22.7051	58.513	22.7051	59.4886	22.7051	58.7139	22.7051	59.2056	22.7051	58.945
23.4375	58.767	23.4375	58.4425	23.4375	59.1355	23.4375	58.1689	23.4375	59.5367	23.4375	57.9487	23.4375	59.9551	23.4375	57.7808	23.4375	60.3722	23.4375	57.6619	23.4375	60.7682	23.4375	57.5875	23.4375	61.1231	23.4375	57.5535	23.4375	61.4187	23.4375	57.5563	23.4375	61.6394	23.4375	57.5938	23.4375	61.7732	23.4375	57.665	23.4375	61.8128	23.4375	57.77	23.4375	61.7562	23.4375	57.91	23.4375	61.6067	23.4375	58.0866	23.4375	61.3732	23.4375	58.3014	23.4375	61.07	23.4375	58.5558	23.4375	60.7154	23.4375	58.8501	23.4375	60.3298	23.4375	59.1822	23.4375	59.9342	23.4375	59.5468
24.1699	60.2939	24.1699	59.8747	24.1699	60.7434	24.1699	59.4977	24.1699	61.208	24.1699	59.1712	24.1699	61.6705	24.1699	58.8999	24.1699	62.1123	24.1699	58.6852	24.1699	62.5144	24.1699	58.5258	24.1699	62.8588	24.1699	58.4192	24.1699	63.1291	24.1699	58.3624	24.1699	63.3117	24.1699	58.3526	24.1699	63.3959	24.1699	58.3879	24.1699	63.3755	24.1699	58.4679	24.1699	63.2491	24.1699	58.5931	24.1699	63.0207	24.1699	58.7656	24.1699	62.7003	24.1699	58.9881	24.1699	62.3038	24.1699	59.2638	24.1699	61.8521	24.1699	59.5946	24.1699	61.3698	24.1699	59.9794	24.1699	60.8823	24.1699	60.4127
25.6348	65.0861	25.6348	64.7837	25.6348	65.4177	25.6348	64.5171	25.6348	65.7693	25.6348	64.2904	25.6348	66.129	25.6348	64.1054	25.6348	66.4833	25.6348	63.9624	25.6348	66.8172	25.6348	63.8607	25.6348	67.1156	25.6348	63.7993	25.6348	67.3644	25.6348	63.7774	25.6348	67.5509	25.6348	63.7942	25.6348	67.6653	25.6348	63.85	25.6348	67.701	25.6348	63.945	25.6348	67.6555	25.6348	64.08	25.6348	67.5305	25.6348	64.2555	25.6348	67.3323	25.6348	64.4716	25.6348	67.071	25.6348	64.7273	25.6348	66.7604	25.6348	65.02	25.6348	66.4163	25.6348	65.3447	25.6348	66.0553	25.6348	65.6935
26.3672	66.5287	26.3672	66.2373	26.3672	66.8459	26.3672	65.978	26.3672	67.1801	26.3672	65.7549	26.3672	67.5202	26.3672	65.57	26.3672	67.8533	26.3672	65.4241	26.3672	68.1655	26.3672	65.3167	26.3672	68.4424	26.3672	65.2472	26.3672	68.6702	26.3672	65.2148	26.3672	68.837	26.3672	65.219	26.3672	68.9331	26.3672	65.2596	26.3672	68.9524	26.3672	65.3371	26.3672	68.8925	26.3672	65.452	26.3672	68.7557	26.3672	65.6051	26.3672	68.5485	26.3672	65.7972	26.3672	68.2818	26.3672	66.0283	26.3672	67.97	26.3672	66.2968	26.3672	67.6295	26.3672	66.5995	26.3672	67.2774	26.3672	66.9296
27.0996	67.0991	27.0996	66.8101	27.0996	67.4156	27.0996	66.5553	27.0996	67.7502	27.0996	66.3389	27.0996	68.091	27.0996	66.1629	27.0996	68.4245	27.0996	66.0274	27.0996	68.7359	27.0996	65.9315	27.0996	69.0105	27.0996	65.8736	27.0996	69.2343	27.0996	65.8519	27.0996	69.3953	27.0996	65.8652	27.0996	69.4843	27.0996	65.9123	27.0996	69.4955	27.0996	65.9928	27.0996	69.4278	27.0996	66.1067	27.0996	69.2842	27.0996	66.2543	27.0996	69.0728	27.0996	66.4363	27.0996	68.8055	27.0996	66.6529	27.0996	68.4977	27.0996	66.9038	27.0996	68.1662	27.0996	67.1869	27.0996	67.8279	27.0996	67.4976
27.832	68.504	27.832	68.1999	27.832	68.8315	27.832	67.9267	27.832	69.1727	27.832	67.6894	27.832	69.516	27.832	67.491	27.832	69.8481	27.832	67.3329	27.832	70.1548	27.832	67.215	27.832	70.422	27.832	67.1366	27.832	70.6364	27.832	67.0967	27.832	70.7865	27.832	67.0942	27.832	70.8634	27.832	67.1285	27.832	70.8617	27.832	67.1993	27.832	70.7801	27.832	67.3068	27.832	70.6218	27.832	67.4515	27.832	70.3946	27.832	67.6341	27.832	70.1106	27.832	67.8551	27.832	69.7853	27.832	68.114	27.832	69.436	27.832	68.4085	27.832	69.0801	27.832	68.7335
29.2969	70.9669	29.2969	70.6718	29.2969	71.2802	29.2969	70.4018	29.2969	71.6028	29.2969	70.1619	29.2969	71.9243	29.2969	69.9554	29.2969	72.2327	29.2969	69.7845	29.2969	72.5152	29.2969	69.65	29.2969	72.7589	29.2969	69.5523	29.2969	72.9515	29.2969	69.4917	29.2969	73.0822	29.2969	69.4681	29.2969	73.1427	29.2969	69.4818	29.2969	73.128	29.2969	69.5332	29.2969	73.0367	29.2969	69.6231	29.2969	72.872	29.2969	69.7525	29.2969	72.6413	29.2969	69.9223	29.2969	72.3564	29.2969	70.1328	29.2969	72.0321	29.2969	70.3833	29.2969	71.6852	29.2969	70.6711	29.2969	71.3329	29.2969	70.9907
30.0293	72.1151	30.0293	71.8195	30.0293	72.4268	30.0293	71.5473	30.0293	72.7462	30.0293	71.3035	30.0293	73.0626	30.0293	71.0917	30.0293	73.3644	30.0293	70.9141	30.0293	73.6389	30.0293	70.772	30.0293	73.8734	30.0293	70.666	30.0293	74.056	30.0293	70.5964	30.0293	74.1761	30.0293	70.5634	30.0293	74.2255	30.0293	70.5673	30.0293	74.1995	30.0293	70.6087	30.0293	74.0971	30.0293	70.6885	30.0293	73.9217	30.0293	70.8078	30.0293	73.6811	30.0293	70.9678	30.0293	73.3876	30.0293	71.1694	30.0293	73.0566	30.0293	71.4121	30.0293	72.7053	30.0293	71.694	30.0293	72.3512	30.0293	72.0099
31.4941	74.8228	31.4941	74.5506	31.4941	75.1086	31.4941	74.2982	31.4941	75.4	31.4941	74.0707	31.4941	75.6876	31.4941	73.8715	31.4941	75.9608	31.4941	73.7032	31.4941	76.2083	31.4941	73.5673	31.4941	76.4185	31.4941	73.4649	31.4941	76.5805	31.4941	73.3965	31.4941	76.6847	31.4941	73.3626	31.4941	76.7238	31.4941	73.3635	31.4941	76.6935	31.4941	73.3997	31.4941	76.5932	31.4941	73.4717	31.4941	76.4266	31.4941	73.5802	31.4941	76.2014	31.4941	73.7259	31.4941	75.9293	31.4941	73.909	31.4941	75.6245	31.4941	74.1292	31.4941	75.3031	31.4941	74.3846	31.4941	74.9806	31.4941	74.6709
32.2266	76.1184	32.2266	75.8692	32.2266	76.3819	32.2266	75.64	32.2266	76.6523	32.2266	75.435	32.2266	76.921	32.2266	75.2572	32.2266	77.178	32.2266	75.1086	32.2266	77.4123	32.2266	74.9903	32.2266	77.6129	32.2266	74.9031	32.2266	77.7691	32.2266	74.8473	32.2266	77.8717	32.2266	74.823	32.2266	77.9135	32.2266	74.8305	32.2266	77.8904	32.2266	74.87	32.2266	77.802	32.2266	74.9417	32.2266	77.6518	32.2266	75.0461	32.2266	77.4472	32.2266	75.1835	32.2266	77.1992	32.2266	75.354	32.2266	76.9215	32.2266	75.5572	32.2266	76.6287	32.2266	75.7914	32.2266	76.335	32.2266	76.0528
33.6914	77.9314	33.6914	77.6832	33.6914	78.1922	33.6914	77.4536	33.6914	78.4584	33.6914	77.2469	33.6914	78.7211	33.6914	77.0664	33.6914	78.9702	33.6914	76.914	33.6914	79.1951	33.6914	76.7912	33.6914	79.3846	33.6914	76.6984	33.6914	79.5286	33.6914	76.6361	33.6914	79.6179	33.6914	76.6045	33.6914	79.6459	33.6914	76.6035	33.6914	79.609	33.6914	76.6333	33.6914	79.5071	33.6914	76.6942	33.6914	79.3446	33.6914	76.7867	33.6914	79.1296	33.6914	76.9113	33.6914	78.8739	33.6914	77.0686	33.6914	78.5918	33.6914	77.2589	33.6914	78.2985	33.6914	77.4811	33.6914	78.0081	33.6914	77.7327
34.4238	79.0657	34.4238	78.82	34.4238	79.3232	34.4238	78.5922	34.4238	79.5852	34.4238	78.3867	34.4238	79.8431	34.4238	78.2068	34.4238	80.0869	34.4238	78.0549	34.4238	80.3061	34.4238	77.9321	34.4238	80.4902	34.4238	77.8395	34.4238	80.6288	34.4238	77.7772	34.4238	80.7135	34.4238	77.7455	34.4238	80.7378	34.4238	77.7443	34.4238	80.6982	34.4238	77.7737	34.4238	80.5951	34.4238	77.8338	34.4238	80.4327	34.4238	77.9248	34.4238	80.2196	34.4238	78.047	34.4238	79.9672	34.4238	78.2011	34.4238	79.6899	34.4238	78.387	34.4238	79.4023	34.4238	78.6039	34.4238	79.1183	34.4238	78.8494
35.8887	81.1419	35.8887	80.9003	35.8887	81.3933	35.8887	80.6742	35.8887	81.647	35.8887	80.4684	35.8887	81.8946	35.8887	80.2864	35.8887	82.1268	35.8887	80.1306	35.8887	82.3333	35.8887	80.0029	35.8887	82.504	35.8887	79.9042	35.8887	82.6293	35.8887	79.8353	35.8887	82.7012	35.8887	79.7964	35.8887	82.7138	35.8887	79.7876	35.8887	82.6642	35.8887	79.8091	35.8887	82.5531	35.8887	79.861	35.8887	82.3853	35.8887	79.9435	35.8887	82.1693	35.8887	80.0571	35.8887	81.917	35.8887	80.2021	35.8887	81.6424	35.8887	80.3787	35.8887	81.36	35.8887	80.5863	35.8887	81.0831	35.8887	80.8226
37.3535	83.2553	37.3535	83.0221	37.3535	83.4971	37.3535	82.8031	37.3535	83.7402	37.3535	82.6032	37.3535	83.9765	37.3535	82.4259	37.3535	84.197	37.3535	82.2739	37.3535	84.3921	37.3535	82.1489	37.3535	84.5521	37.3535	82.0523	37.3535	84.6681	37.3535	81.9848	37.3535	84.7325	37.3535	81.9465	37.3535	84.7398	37.3535	81.9377	37.3535	84.6877	37.3535	81.9584	37.3535	84.5772	37.3535	82.0083	37.3535	84.4133	37.3535	82.0875	37.3535	84.2043	37.3535	82.1961	37.3535	83.9621	37.3535	82.3343	37.3535	83.6998	37.3535	82.5019	37.3535	83.4312	37.3535	82.6985	37.3535	83.1687	37.3535	82.9222
38.8184	85.2348	38.8184	85.0074	38.8184	85.4691	38.8184	84.7926	38.8184	85.7032	38.8184	84.5953	38.8184	85.9295	38.8184	84.4191	38.8184	86.1393	38.8184	84.2669	38.8184	86.3233	38.8184	84.141	38.8184	86.4726	38.8184	84.0427	38.8184	86.5788	38.8184	83.9731	38.8184	86.6347	38.8184	83.9326	38.8184	86.6355	38.8184	83.9214	38.8184	86.5792	38.8184	83.9394	38.8184	86.4671	38.8184	83.9864	38.8184	86.3045	38.8184	84.0623	38.8184	86.0996	38.8184	84.1667	38.8184	85.864	38.8184	84.2996	38.8184	85.6104	38.8184	84.4607	38.8184	85.3519	38.8184	84.6493	38.8184	85.0999	38.8184	84.8636
39.5508	86.1432	39.5508	85.9218	39.5508	86.3712	39.5508	85.7128	39.5508	86.599	39.5508	85.5208	39.5508	86.8189	39.5508	85.3496	39.5508	87.0223	39.5508	85.2021	39.5508	87.2003	39.5508	85.0803	39.5508	87.344	39.5508	84.9857	39.5508	87.4452	39.5508	84.919	39.5508	87.4971	39.5508	84.8806	39.5508	87.495	39.5508	84.8707	39.5508	87.4373	39.5508	84.8889	39.5508	87.3255	39.5508	84.9348	39.5508	87.165	39.5508	85.0081	39.5508	86.9644	39.5508	85.1084	39.5508	86.7351	39.5508	85.2355	39.5508	86.4896	39.5508	85.3891	39.5508	86.2405	39.5508	85.5688	39.5508	85.9989	39.5508	85.7731
41.0156	87.8494	41.0156	87.6249	41.0156	88.0789	41.0156	87.4117	41.0156	88.3067	41.0156	87.2146	41.0156	88.5249	41.0156	87.038	41.0156	88.725	41.0156	86.8849	41.0156	88.8983	41.0156	86.7578	41.0156	89.0362	41.0156	86.6585	41.0156	89.1309	41.0156	86.5881	41.0156	89.1759	41.0156	86.5469	41.0156	89.167	41.0156	86.5352	41.0156	89.103	41.0156	86.5525	41.0156	88.9859	41.0156	86.5982	41.0156	88.8214	41.0156	86.6716	41.0156	88.6183	41.0156	86.7721	41.0156	88.388	41.0156	86.8991	41.0156	88.1431	41.0156	87.0521	41.0156	87.8957	41.0156	87.2305	41.0156	87.6563	41.0156	87.4328
42.4805	89.4274	42.4805	89.2073	42.4805	89.6501	42.4805	88.9957	42.4805	89.8688	42.4805	88.7978	42.4805	90.0757	42.4805	88.6177	42.4805	90.2629	42.4805	88.459	42.4805	90.4221	42.4805	88.3243	42.4805	90.545	42.4805	88.2157	42.4805	90.6243	42.4805	88.1346	42.4805	90.654	42.4805	88.0818	42.4805	90.6304	42.4805	88.0577	42.4805	90.5526	42.4805	88.0621	42.4805	90.4233	42.4805	88.0947	42.4805	90.2485	42.4805	88.155	42.4805	90.0376	42.4805	88.2424	42.4805	89.8024	42.4805	88.3567	42.4805	89.5556	42.4805	88.4977	42.4805	89.3096	42.4805	88.6652	42.4805	89.0746	42.4805	88.8583
43.9453	90.8585	43.9453	90.6457	43.9453	91.0735	43.9453	90.4406	43.9453	91.2839	43.9453	90.2483	43.9453	91.4827	43.9453	90.073	43.9453	91.662	43.9453	89.9181	43.9453	91.8139	43.9453	89.7864	43.9453	91.9305	43.9453	89.6798	43.9453	92.0048	43.9453	89.5999	43.9453	92.0313	43.9453	89.5475	43.9453	92.0066	43.9453	89.5232	43.9453	91.93	43.9453	89.5267	43.9453	91.8041	43.9453	89.5579	43.9453	91.635	43.9453	89.6161	43.9453	91.4316	43.9453	89.701	43.9453	91.2053	43.9453	89.8119	43.9453	90.9681	43.9453	89.9487	43.9453	90.7317	43.9453	90.1108	43.9453	90.5057	43.9453	90.2972
45.4102	91.9552	45.4102	91.7487	45.4102	92.1632	45.4102	91.5493	45.4102	92.3662	45.4102	91.3619	45.4102	92.5571	45.4102	91.1908	45.4102	92.7283	45.4102	91.0394	45.4102	92.8721	45.4102	90.9105	45.4102	92.9811	45.4102	90.8061	45.4102	93.0484	45.4102	90.7276	45.4102	93.0691	45.4102	90.6761	45.4102	93.04	45.4102	90.6518	45.4102	92.9609	45.4102	90.6545	45.4102	92.8349	45.4102	90.6839	45.4102	92.668	45.4102	90.7393	45.4102	92.4696	45.4102	90.8199	45.4102	92.2505	45.4102	90.9252	45.4102	92.0227	45.4102	91.0547	45.4102	91.7968	45.4102	91.2081	45.4102	91.582	45.4102	91.3845
47.6074	93.129	47.6074	92.9277	47.6074	93.3306	47.6074	92.7327	47.6074	93.5263	47.6074	92.5488	47.6074	93.709	47.6074	92.3805	47.6074	93.8713	47.6074	92.2314	47.6074	94.0059	47.6074	92.1041	47.6074	94.1056	47.6074	92.0011	47.6074	94.1643	47.6074	91.9236	47.6074	94.1772	47.6074	91.8726	47.6074	94.142	47.6074	91.8482	47.6074	94.0588	47.6074	91.8502	47.6074	93.9311	47.6074	91.8779	47.6074	93.7655	47.6074	91.9303	47.6074	93.5713	47.6074	92.0066	47.6074	93.3593	47.6074	92.1059	47.6074	93.1408	47.6074	92.2278	47.6074	92.9261	47.6074	92.3717	47.6074	92.7231	47.6074	92.5373
49.0723	93.6665	49.0723	93.4662	49.0723	93.8667	49.0723	93.2716	49.0723	94.0602	49.0723	93.0878	49.0723	94.2402	49.0723	92.9193	49.0723	94.3995	49.0723	92.7699	49.0723	94.5307	49.0723	92.6426	49.0723	94.627	49.0723	92.5397	49.0723	94.6824	49.0723	92.4628	49.0723	94.6927	49.0723	92.4126	49.0723	94.6555	49.0723	92.3894	49.0723	94.5715	49.0723	92.3929	49.0723	94.4442	49.0723	92.4221	49.0723	94.2804	49.0723	92.4759	49.0723	94.0892	49.0723	92.5531	49.0723	93.8814	49.0723	92.6526	49.0723	93.6678	49.0723	92.7737	49.0723	93.4582	49.0723	92.9158	49.0723	93.26	49.0723	93.0783
50.5371	94.0942	50.5371	93.8949	50.5371	94.2927	50.5371	93.7005	50.5371	94.4838	50.5371	93.5164	50.5371	94.6608	50.5371	93.3472	50.5371	94.8164	50.5371	93.1968	50.5371	94.9437	50.5371	93.0686	50.5371	95.036	50.5371	92.9648	50.5371	95.0877	50.5371	92.8874	50.5371	95.0947	50.5371	92.8372	50.5371	95.0553	50.5371	92.8145	50.5371	94.9701	50.5371	92.8188	50.5371	94.8431	50.5371	92.8491	50.5371	94.6809	50.5371	92.904	50.5371	94.4927	50.5371	92.9822	50.5371	94.289	50.5371	93.0822	50.5371	94.0802	50.5371	93.2029	50.5371	93.8755	50.5371	93.3437	50.5371	93.6818	50.5371	93.5037
52.7344	94.5407	52.7344	94.3462	52.7344	94.7331	52.7344	94.1554	52.7344	94.9169	52.7344	93.9735	52.7344	95.0856	52.7344	93.8054	52.7344	95.2322	52.7344	93.6552	52.7344	95.3501	52.7344	93.5262	52.7344	95.433	52.7344	93.4212	52.7344	95.4759	52.7344	93.3421	52.7344	95.4752	52.7344	93.29	52.7344	95.4295	52.7344	93.2651	52.7344	95.3402	52.7344	93.2671	52.7344	95.2115	52.7344	93.2949	52.7344	95.0505	52.7344	93.3471	52.7344	94.8661	52.7344	93.4218	52.7344	94.6687	52.7344	93.5175	52.7344	94.468	52.7344	93.6329	52.7344	94.2724	52.7344	93.7669	52.7344	94.0882	52.7344	93.919
54.1992	94.7552	54.1992	94.5653	54.1992	94.9425	54.1992	94.3787	54.1992	95.1209	54.1992	94.2007	54.1992	95.2839	54.1992	94.036	54.1992	95.4247	54.1992	93.8889	54.1992	95.5369	54.1992	93.7626	54.1992	95.6144	54.1992	93.66	54.1992	95.6525	54.1992	93.5829	54.1992	95.6478	54.1992	93.5324	54.1992	95.5994	54.1992	93.5086	54.1992	95.509	54.1992	93.5111	54.1992	95.381	54.1992	93.5386	54.1992	95.2227	54.1992	93.5895	54.1992	95.0432	54.1992	93.6619	54.1992	94.8523	54.1992	93.7541	54.1992	94.6596	54.1992	93.8645	54.1992	94.4728	54.1992	93.9922	54.1992	94.2975	54.1992	94.1368
56.3965	94.9982	56.3965	94.8114	56.3965	95.1818	56.3965	94.6273	56.3965	95.3561	56.3965	94.4515	56.3965	95.5144	56.3965	94.2888	56.3965	95.6502	56.3965	94.1435	56.3965	95.7571	56.3965	94.0191	56.3965	95.8296	56.3965	93.9184	56.3965	95.863	56.3965	93.8432	56.3965	95.8546	56.3965	93.7947	56.3965	95.8036	56.3965	93.7728	56.3965	95.7122	56.3965	93.777	56.3965	95.5852	56.3965	93.8058	56.3965	95.4299	56.3965	93.8572	56.3965	95.2554	56.3965	93.9292	56.3965	95.0712	56.3965	94.0196	56.3965	94.8865	56.3965	94.1268	56.3965	94.7083	56.3965	94.2498	56.3965	94.5413	56.3965	94.3881
