"Early Reflections"											
"Floor Bounce"		"Ceiling Bounce"		"Front Wall Bounce"		"Side Wall Bounce"		"Rear Wall Bounce"		"Total Early Reflection"	
"Frequency [Hz]"	"Sound Pessure Level [dB]  / [2.83V 1m] "	"Frequency [Hz]"	"Sound Pessure Level [dB]  / [2.83V 1m] "	"Frequency [Hz]"	"Sound Pessure Level [dB]  / [2.83V 1m] "	"Frequency [Hz]"	"Sound Pessure Level [dB]  / [2.83V 1m] "	"Frequency [Hz]"	"Sound Pessure Level [dB]  / [2.83V 1m] "	"Frequency [Hz]"	"Sound Pessure Level [dB]  / [2.83V 1m] "
20.5078	53.77	20.5078	53.1451	20.5078	53.2908	20.5078	53.8444	20.5078	54.8005	20.5078	53.7436
23.4375	47.4946	23.4375	49.1641	23.4375	48.2365	23.4375	48.3858	23.4375	48.4924	23.4375	48.3641
26.3672	46.5349	26.3672	49.5716	26.3672	48.0173	26.3672	47.8672	26.3672	47.4378	26.3672	47.9684
29.2969	50.7028	29.2969	52.9507	29.2969	51.7322	29.2969	51.5581	29.2969	50.9597	29.2969	51.6405
32.2266	55.8492	32.2266	57.2811	32.2266	56.4774	32.2266	56.4328	32.2266	56.2041	32.2266	56.4641
35.1563	60.1296	35.1563	61.0819	35.1563	60.5185	35.1563	60.5104	35.1563	60.3876	35.1563	60.527
38.0859	64.1919	38.0859	64.7208	38.0859	64.4319	38.0859	64.376	38.0859	64.1838	38.0859	64.3901
41.0156	67.2682	41.0156	67.917	41.0156	67.5783	41.0156	67.4696	41.0156	67.1887	41.0156	67.4994
43.9453	70.4563	43.9453	70.7956	43.9453	70.6257	43.9453	70.5549	43.9453	70.3692	43.9453	70.5704
46.875	72.2912	46.875	72.5566	46.875	72.4373	46.875	72.348	46.875	72.1409	46.875	72.367
49.8047	73.5816	49.8047	73.7474	49.8047	73.6902	49.8047	73.5919	49.8047	73.3821	49.8047	73.612
55.6641	75.0228	55.6641	75.0129	55.6641	75.0672	55.6641	74.9472	55.6641	74.7187	55.6641	74.9706
58.5938	75.343	58.5938	75.2931	58.5938	75.3735	58.5938	75.2482	58.5938	75.0214	58.5938	75.2731
61.5234	75.8281	61.5234	75.6869	61.5234	75.8268	61.5234	75.6924	61.5234	75.4503	61.5234	75.7172
67.3828	76.5841	67.3828	76.3625	67.3828	76.558	67.3828	76.4037	67.3828	76.147	67.3828	76.4336
73.2422	77.3911	73.2422	77.058	73.2422	77.3312	73.2422	77.1461	73.2422	76.8534	73.2422	77.1832
76.1719	77.8991	76.1719	77.5863	76.1719	77.8565	76.1719	77.6528	76.1719	77.3096	76.1719	77.6923
82.0313	78.8669	82.0313	78.4616	82.0313	78.7764	82.0313	78.6022	82.0313	78.3397	82.0313	78.6361
87.8906	79.7859	87.8906	79.3484	87.8906	79.6897	87.8906	79.505	87.8906	79.2382	87.8906	79.5415
93.75	80.7338	93.75	80.3165	93.75	80.6505	93.75	80.4561	93.75	80.1954	93.75	80.4975
102.539	82.1441	102.539	81.6767	102.539	82.0457	102.539	81.836	102.539	81.5656	102.539	81.8821
108.398	82.9421	108.398	82.4643	108.398	82.8419	108.398	82.6282	108.398	82.3927	108.398	82.6794
117.188	84.308	117.188	83.8051	117.188	84.2174	117.188	83.9527	117.188	83.64	117.188	84.0169
125.977	85.3895	125.977	84.848	125.977	85.2885	125.977	85.0097	125.977	84.7009	125.977	85.0797
134.766	86.3556	134.766	85.8068	134.766	86.2578	134.766	85.9459	134.766	85.6052	134.766	86.0282
143.555	87.0805	143.555	86.4746	143.555	86.9748	143.555	86.6305	143.555	86.2815	143.555	86.7243
155.273	87.7299	155.273	87.1114	155.273	87.6169	155.273	87.2678	155.273	86.9285	155.273	87.3654
164.063	87.8892	164.063	87.2569	164.063	87.7816	164.063	87.4064	164.063	87.1123	164.063	87.5196
175.781	88.0083	175.781	87.2903	175.781	87.8992	175.781	87.4361	175.781	87.0565	175.781	87.5774
190.43	88.0432	190.43	87.3495	190.43	87.9582	190.43	87.4621	190.43	86.9731	190.43	87.6067
202.148	87.7559	202.148	87.109	202.148	87.6767	202.148	87.1938	202.148	86.8685	202.148	87.3518
216.797	87.2945	216.797	86.5512	216.797	87.221	216.797	86.6266	216.797	86.2637	216.797	86.8279
234.375	87.0914	234.375	86.2643	234.375	87.0336	234.375	86.298	234.375	85.7335	234.375	86.5423
249.023	86.7033	249.023	85.7156	249.023	86.6049	249.023	85.7772	249.023	85.2017	249.023	86.063
266.602	86.5259	266.602	85.5257	266.602	86.4538	266.602	85.5547	266.602	84.7921	266.602	85.8546
287.109	86.0865	287.109	85.0089	287.109	85.9984	287.109	85.0416	287.109	84.3248	287.109	85.3731
307.617	85.9784	307.617	84.7281	307.617	85.9098	307.617	84.806	307.617	83.914	307.617	85.181
331.055	85.9963	331.055	84.7053	331.055	85.9536	331.055	84.7402	331.055	83.6742	331.055	85.1519
354.492	85.6654	354.492	84.3093	354.492	85.5985	354.492	84.2869	354.492	83.0978	354.492	84.744
377.93	85.1985	377.93	83.7438	377.93	85.1299	377.93	83.8614	377.93	82.9422	377.93	84.3061
407.227	85.9387	407.227	84.0314	407.227	85.8704	407.227	84.2076	407.227	82.7596	407.227	84.7949
436.523	85.2657	436.523	83.0876	436.523	85.1983	436.523	83.5002	436.523	81.712	436.523	84.0589
465.82	85.656	465.82	83.5167	465.82	85.5839	465.82	83.7303	465.82	81.7516	465.82	84.3747
500.977	85.8469	500.977	83.5976	500.977	85.7189	500.977	83.8659	500.977	81.5554	500.977	84.4934
536.133	85.2215	536.133	83.2069	536.133	85.1427	536.133	83.3015	536.133	81.2147	536.133	83.9453
574.219	85.973	574.219	83.3286	574.219	86.1125	574.219	84.0397	574.219	81.0308	574.219	84.6628
615.234	85.5679	615.234	83.1438	615.234	85.6312	615.234	83.834	615.234	81.0301	615.234	84.3369
659.18	86.0221	659.18	83.2694	659.18	86.322	659.18	84.3155	659.18	80.9927	659.18	84.8357
706.055	85.9313	706.055	84.1726	706.055	86.4179	706.055	84.629	706.055	81.3468	706.055	85.0621
758.789	86.8432	758.789	84.8193	758.789	87.0359	758.789	85.3835	758.789	82.1337	758.789	85.7812
811.523	86.952	811.523	84.7568	811.523	87.1481	811.523	85.6685	811.523	82.6127	811.523	85.9575
870.117	86.6103	870.117	84.2424	870.117	86.8386	870.117	85.1764	870.117	82.0362	870.117	85.5465
931.641	86.0314	931.641	83.9034	931.641	86.8444	931.641	85.3667	931.641	82.7008	931.641	85.5465
999.023	86.0919	999.023	83.6445	999.023	86.628	999.023	84.3165	999.023	81.5083	999.023	85.0205
1,072.27	85.4387	1,072.27	83.0543	1,072.27	86.2899	1,072.27	84.0553	1,072.27	81.5968	1,072.27	84.6653
1,148.44	85.7107	1,148.44	83.1823	1,148.44	86.9213	1,148.44	84.0029	1,148.44	81.1095	1,148.44	84.9286
1,230.47	85.5158	1,230.47	83.1098	1,230.47	86.9379	1,230.47	83.4234	1,230.47	81.1352	1,230.47	84.732
1,318.36	84.3063	1,318.36	84.7778	1,318.36	86.6618	1,318.36	82.7749	1,318.36	79.6066	1,318.36	84.3775
1,415.04	85.982	1,415.04	84.5623	1,415.04	87.6446	1,415.04	83.6447	1,415.04	78.8997	1,415.04	85.2275
1,514.65	86.3331	1,514.65	83.0491	1,514.65	86.8015	1,514.65	82.6828	1,514.65	78.0462	1,514.65	84.4791
1,623.05	86.4365	1,623.05	81.3042	1,623.05	85.117	1,623.05	81.2091	1,623.05	74.7254	1,623.05	83.1821
1,740.23	85.2343	1,740.23	81.5062	1,740.23	85.3776	1,740.23	81.3337	1,740.23	74.8575	1,740.23	83.0861
1,866.21	83.633	1,866.21	80.9743	1,866.21	84.0131	1,866.21	79.4088	1,866.21	73.2961	1,866.21	81.6118
2,000.98	83.018	2,000.98	80.7225	2,000.98	83.6664	2,000.98	78.5525	2,000.98	72.5224	2,000.98	81.1057
2,144.53	83.2045	2,144.53	80.0998	2,144.53	83.2921	2,144.53	77.7407	2,144.53	71.4797	2,144.53	80.7144
2,296.88	83.0169	2,296.88	78.1068	2,296.88	84.4583	2,296.88	78.7168	2,296.88	71.1795	2,296.88	81.331
2,460.94	82.7952	2,460.94	78.8909	2,460.94	84.2638	2,460.94	78.2715	2,460.94	70.0925	2,460.94	81.1319
2,639.65	82.7841	2,639.65	78.0384	2,639.65	84.5147	2,639.65	78.6933	2,639.65	70.6807	2,639.65	81.3099
2,827.15	81.5313	2,827.15	76.8276	2,827.15	84.8304	2,827.15	78.5324	2,827.15	70.6459	2,827.15	81.2262
3,032.23	81.1267	3,032.23	77.5972	3,032.23	85.4182	3,032.23	78.8801	3,032.23	70.8329	3,032.23	81.657
3,249.02	81.653	3,249.02	77.5816	3,249.02	85.5885	3,249.02	79.2036	3,249.02	70.1647	3,249.02	81.8809
3,483.4	80.961	3,483.4	79.0601	3,483.4	86.0513	3,483.4	78.8323	3,483.4	69.5376	3,483.4	82.1106
3,732.42	79.5651	3,732.42	79.6929	3,732.42	86.2936	3,732.42	79.6478	3,732.42	71.7859	3,732.42	82.3824
3,999.02	77.9368	3,999.02	81.2208	3,999.02	85.8045	3,999.02	80.1239	3,999.02	72.1777	3,999.02	82.2116
4,286.13	76.0623	4,286.13	82.2646	4,286.13	85.302	4,286.13	79.9275	4,286.13	71.8467	4,286.13	81.902
4,593.75	79.2026	4,593.75	82.4557	4,593.75	85.5257	4,593.75	79.9074	4,593.75	72.1504	4,593.75	82.1893
4,924.8	79.6378	4,924.8	81.6277	4,924.8	84.9075	4,924.8	79.3492	4,924.8	71.9246	4,924.8	81.6331
5,279.3	81.0388	5,279.3	80.332	5,279.3	84.2916	5,279.3	79.3918	5,279.3	72.8505	5,279.3	81.3064
5,657.23	82.1827	5,657.23	80.2572	5,657.23	84.2872	5,657.23	80.7456	5,657.23	73.7777	5,657.23	81.818
6,061.52	81.9625	6,061.52	82.1358	6,061.52	83.5802	6,061.52	80.8502	6,061.52	74.1494	6,061.52	81.7077
6,498.05	81.686	6,498.05	82.3611	6,498.05	83.712	6,498.05	80.9549	6,498.05	74.2169	6,498.05	81.7938
6,963.87	82.6459	6,963.87	81.7739	6,963.87	83.7815	6,963.87	81.0601	6,963.87	73.9708	6,963.87	81.8995
7,464.84	83.8829	7,464.84	81.4797	7,464.84	83.9379	7,464.84	81.1866	7,464.84	73.1685	7,464.84	82.1496
8,000.98	83.9031	8,000.98	82.3846	8,000.98	83.8647	8,000.98	81.4852	8,000.98	73.6619	8,000.98	82.3224
8,575.2	84.1517	8,575.2	82.3789	8,575.2	84.3843	8,575.2	81.247	8,575.2	73.279	8,575.2	82.4935
9,190.43	85.4159	9,190.43	81.9438	9,190.43	86.6389	9,190.43	81.8057	9,190.43	72.4216	9,190.43	83.8504
9,849.61	86.4504	9,849.61	81.827	9,849.61	86.8504	9,849.61	82.2829	9,849.61	72.7122	9,849.61	84.2506
10,555.7	86.4303	10,555.7	82.1911	10,555.7	86.6332	10,555.7	81.7188	10,555.7	71.6039	10,555.7	84.0251
11,314.5	86.86	11,314.5	80.9039	11,314.5	88.1713	11,314.5	80.8623	11,314.5	69.0409	11,314.5	84.6945
12,126	87.2521	12,126	80.3499	12,126	87.9689	12,126	81.2024	12,126	69.6328	12,126	84.6871
12,996.1	86.2109	12,996.1	80.7085	12,996.1	87.5484	12,996.1	80.06	12,996.1	67.4105	12,996.1	84.0574
13,927.7	86.2584	13,927.7	79.7839	13,927.7	88.0392	13,927.7	79.695	13,927.7	66.3977	13,927.7	84.2732
14,929.7	86.2244	14,929.7	79.653	14,929.7	87.8979	14,929.7	79.5667	14,929.7	66.5238	14,929.7	84.1544
15,999	85.5553	15,999	76.0166	15,999	88.2179	15,999	79.2057	15,999	67.2254	15,999	84.1049
17,147.5	81.259	17,147.5	73.3033	17,147.5	88.3376	17,147.5	77.0932	17,147.5	58.5847	17,147.5	83.4492
18,377.9	83.45	18,377.9	76.0668	18,377.9	88.7876	18,377.9	75.5316	18,377.9	70.0634	18,377.9	83.9579
19,699.2	82.3641	19,699.2	77.4087	19,699.2	88.4989	19,699.2	76.128	19,699.2	69.5609	19,699.2	83.6848
19,998	82.0022	19,998	77.1445	19,998	88.8931	19,998	76.31	19,998	68.7689	19,998	83.9837
