"SPL Vertical"																																																																							
"On-Axis"		"10°"		"-10°"		"20°"		"-20°"		"30°"		"-30°"		"40°"		"-40°"		"50°"		"-50°"		"60°"		"-60°"		"70°"		"-70°"		"80°"		"-80°"		"90°"		"-90°"		"100°"		"-100°"		"110°"		"-110°"		"120°"		"-120°"		"130°"		"-130°"		"140°"		"-140°"		"150°"		"-150°"		"160°"		"-160°"		"170°"		"-170°"		"180°"	
"Frequency [Hz]"	"Sound Pessure Level [dB]  / [2.83V 1m] "	"Frequency [Hz]"	"Sound Pessure Level [dB]  / [2.83V 1m] "	"Frequency [Hz]"	"Sound Pessure Level [dB]  / [2.83V 1m] "	"Frequency [Hz]"	"Sound Pessure Level [dB]  / [2.83V 1m] "	"Frequency [Hz]"	"Sound Pessure Level [dB]  / [2.83V 1m] "	"Frequency [Hz]"	"Sound Pessure Level [dB]  / [2.83V 1m] "	"Frequency [Hz]"	"Sound Pessure Level [dB]  / [2.83V 1m] "	"Frequency [Hz]"	"Sound Pessure Level [dB]  / [2.83V 1m] "	"Frequency [Hz]"	"Sound Pessure Level [dB]  / [2.83V 1m] "	"Frequency [Hz]"	"Sound Pessure Level [dB]  / [2.83V 1m] "	"Frequency [Hz]"	"Sound Pessure Level [dB]  / [2.83V 1m] "	"Frequency [Hz]"	"Sound Pessure Level [dB]  / [2.83V 1m] "	"Frequency [Hz]"	"Sound Pessure Level [dB]  / [2.83V 1m] "	"Frequency [Hz]"	"Sound Pessure Level [dB]  / [2.83V 1m] "	"Frequency [Hz]"	"Sound Pessure Level [dB]  / [2.83V 1m] "	"Frequency [Hz]"	"Sound Pessure Level [dB]  / [2.83V 1m] "	"Frequency [Hz]"	"Sound Pessure Level [dB]  / [2.83V 1m] "	"Frequency [Hz]"	"Sound Pessure Level [dB]  / [2.83V 1m] "	"Frequency [Hz]"	"Sound Pessure Level [dB]  / [2.83V 1m] "	"Frequency [Hz]"	"Sound Pessure Level [dB]  / [2.83V 1m] "	"Frequency [Hz]"	"Sound Pessure Level [dB]  / [2.83V 1m] "	"Frequency [Hz]"	"Sound Pessure Level [dB]  / [2.83V 1m] "	"Frequency [Hz]"	"Sound Pessure Level [dB]  / [2.83V 1m] "	"Frequency [Hz]"	"Sound Pessure Level [dB]  / [2.83V 1m] "	"Frequency [Hz]"	"Sound Pessure Level [dB]  / [2.83V 1m] "	"Frequency [Hz]"	"Sound Pessure Level [dB]  / [2.83V 1m] "	"Frequency [Hz]"	"Sound Pessure Level [dB]  / [2.83V 1m] "	"Frequency [Hz]"	"Sound Pessure Level [dB]  / [2.83V 1m] "	"Frequency [Hz]"	"Sound Pessure Level [dB]  / [2.83V 1m] "	"Frequency [Hz]"	"Sound Pessure Level [dB]  / [2.83V 1m] "	"Frequency [Hz]"	"Sound Pessure Level [dB]  / [2.83V 1m] "	"Frequency [Hz]"	"Sound Pessure Level [dB]  / [2.83V 1m] "	"Frequency [Hz]"	"Sound Pessure Level [dB]  / [2.83V 1m] "	"Frequency [Hz]"	"Sound Pessure Level [dB]  / [2.83V 1m] "	"Frequency [Hz]"	"Sound Pessure Level [dB]  / [2.83V 1m] "	"Frequency [Hz]"	"Sound Pessure Level [dB]  / [2.83V 1m] "
20.5078	51.8386	20.5078	51.5227	20.5078	52.1764	20.5078	51.2377	20.5078	52.5252	20.5078	50.9903	20.5078	52.8719	20.5078	50.7849	20.5078	53.2026	20.5078	50.6241	20.5078	53.503	20.5078	50.5091	20.5078	53.7597	20.5078	50.4401	20.5078	53.9611	20.5078	50.4167	20.5078	54.098	20.5078	50.438	20.5078	54.1647	20.5078	50.5027	20.5078	54.1592	20.5078	50.6093	20.5078	54.0835	20.5078	50.7559	20.5078	53.9429	20.5078	50.9401	20.5078	53.7458	20.5078	51.1591	20.5078	53.5027	20.5078	51.409	20.5078	53.2247	20.5078	51.6852	20.5078	52.9233	20.5078	51.982	20.5078	52.6093	20.5078	52.2926
23.4375	55.3371	23.4375	54.9594	23.4375	55.7294	23.4375	54.6066	23.4375	56.1239	23.4375	54.2867	23.4375	56.5068	23.4375	54.0057	23.4375	56.8634	23.4375	53.7675	23.4375	57.1787	23.4375	53.5748	23.4375	57.4387	23.4375	53.4293	23.4375	57.6309	23.4375	53.3322	23.4375	57.7454	23.4375	53.2845	23.4375	57.7758	23.4375	53.2874	23.4375	57.7194	23.4375	53.3418	23.4375	57.5778	23.4375	53.4486	23.4375	57.3573	23.4375	53.608	23.4375	57.0678	23.4375	53.8193	23.4375	56.7231	23.4375	54.0805	23.4375	56.3391	23.4375	54.3879	23.4375	55.9325	23.4375	54.7361	23.4375	55.5201	23.4375	55.1169
26.3672	57.9481	26.3672	57.6266	26.3672	58.2838	26.3672	57.3283	26.3672	58.6228	26.3672	57.0598	26.3672	58.9523	26.3672	56.8255	26.3672	59.2584	26.3672	56.6281	26.3672	59.5269	26.3672	56.4689	26.3672	59.7446	26.3672	56.3485	26.3672	59.8996	26.3672	56.2672	26.3672	59.9833	26.3672	56.2252	26.3672	59.99	26.3672	56.2229	26.3672	59.9186	26.3672	56.2607	26.3672	59.7725	26.3672	56.3393	26.3672	59.5594	26.3672	56.4588	26.3672	59.2908	26.3672	56.6189	26.3672	58.981	26.3672	56.8188	26.3672	58.6458	26.3672	57.0565	26.3672	58.3004	26.3672	57.3291	26.3672	57.9587	26.3672	57.632
29.2969	61.3886	29.2969	61.1068	29.2969	61.6804	29.2969	60.8421	29.2969	61.9732	29.2969	60.5999	29.2969	62.2566	29.2969	60.384	29.2969	62.5188	29.2969	60.1969	29.2969	62.7477	29.2969	60.0402	29.2969	62.9318	29.2969	59.9153	29.2969	63.0606	29.2969	59.8232	29.2969	63.126	29.2969	59.765	29.2969	63.1228	29.2969	59.742	29.2969	63.0496	29.2969	59.7556	29.2969	62.9091	29.2969	59.8071	29.2969	62.708	29.2969	59.8975	29.2969	62.4565	29.2969	60.0274	29.2969	62.1677	29.2969	60.1967	29.2969	61.856	29.2969	60.404	29.2969	61.5358	29.2969	60.647	29.2969	61.2205	29.2969	60.9213
32.2266	64.3243	32.2266	64.0634	32.2266	64.5919	32.2266	63.816	32.2266	64.8577	32.2266	63.5872	32.2266	65.1122	32.2266	63.3809	32.2266	65.3445	32.2266	63.1997	32.2266	65.5435	32.2266	63.0454	32.2266	65.6986	32.2266	62.9195	32.2266	65.8002	32.2266	62.823	32.2266	65.8413	32.2266	62.757	32.2266	65.8175	32.2266	62.7227	32.2266	65.7283	32.2266	62.7212	32.2266	65.5772	32.2266	62.754	32.2266	65.3717	32.2266	62.8219	32.2266	65.1225	32.2266	62.9258	32.2266	64.8431	32.2266	63.0659	32.2266	64.5476	32.2266	63.2419	32.2266	64.2498	32.2266	63.4521	32.2266	63.962	32.2266	63.6937
35.1563	67.505	35.1563	67.2769	35.1563	67.738	35.1563	67.0596	35.1563	67.9685	35.1563	66.8577	35.1563	68.1879	35.1563	66.6748	35.1563	68.3867	35.1563	66.5133	35.1563	68.555	35.1563	66.3749	35.1563	68.6835	35.1563	66.2609	35.1563	68.7637	35.1563	66.1723	35.1563	68.7895	35.1563	66.1101	35.1563	68.7575	35.1563	66.0752	35.1563	68.6679	35.1563	66.0686	35.1563	68.5244	35.1563	66.0913	35.1563	68.3347	35.1563	66.1441	35.1563	68.1091	35.1563	66.2277	35.1563	67.8601	35.1563	66.3424	35.1563	67.6004	35.1563	66.488	35.1563	67.342	35.1563	66.6635	35.1563	67.0949	35.1563	66.867
38.0859	70.5039	38.0859	70.2979	38.0859	70.7126	38.0859	70.1003	38.0859	70.9174	38.0859	69.9155	38.0859	71.1105	38.0859	69.747	38.0859	71.2835	38.0859	69.5974	38.0859	71.4278	38.0859	69.4687	38.0859	71.5351	38.0859	69.3622	38.0859	71.5983	38.0859	69.2792	38.0859	71.6123	38.0859	69.2206	38.0859	71.5746	38.0859	69.1871	38.0859	71.4861	38.0859	69.1797	38.0859	71.351	38.0859	69.1989	38.0859	71.1765	38.0859	69.2452	38.0859	70.9725	38.0859	69.3189	38.0859	70.7502	38.0859	69.4199	38.0859	70.5205	38.0859	69.5476	38.0859	70.2936	38.0859	69.7012	38.0859	70.0777	38.0859	69.8788
41.0156	73.2808	41.0156	73.089	41.0156	73.4744	41.0156	72.9046	41.0156	73.6636	41.0156	72.7321	41.0156	73.8411	41.0156	72.5752	41.0156	73.9993	41.0156	72.4367	41.0156	74.1304	41.0156	72.3189	41.0156	74.227	41.0156	72.2232	41.0156	74.283	41.0156	72.1509	41.0156	74.2941	41.0156	72.1027	41.0156	74.2583	41.0156	72.0789	41.0156	74.1768	41.0156	72.0798	41.0156	74.0538	41.0156	72.1054	41.0156	73.8964	41.0156	72.1552	41.0156	73.7137	41.0156	72.2289	41.0156	73.5157	41.0156	72.3256	41.0156	73.3121	41.0156	72.4444	41.0156	73.1115	41.0156	72.5842	41.0156	72.9204	41.0156	72.7436
43.9453	75.2111	43.9453	75.0331	43.9453	75.3879	43.9453	74.859	43.9453	75.5574	43.9453	74.6933	43.9453	75.7133	43.9453	74.5398	43.9453	75.8485	43.9453	74.4017	43.9453	75.9565	43.9453	74.2814	43.9453	76.0309	43.9453	74.181	43.9453	76.0667	43.9453	74.102	43.9453	76.0606	43.9453	74.0455	43.9453	76.0117	43.9453	74.0121	43.9453	75.9219	43.9453	74.0024	43.9453	75.7959	43.9453	74.0163	43.9453	75.6408	43.9453	74.0537	43.9453	75.465	43.9453	74.1141	43.9453	75.278	43.9453	74.1968	43.9453	75.0884	43.9453	74.3009	43.9453	74.9034	43.9453	74.4253	43.9453	74.7288	43.9453	74.5685
46.875	76.9056	46.875	76.7437	46.875	77.0655	46.875	76.5845	46.875	77.2178	46.875	76.4323	46.875	77.3568	46.875	76.2908	46.875	77.4763	46.875	76.1629	46.875	77.5704	46.875	76.0512	46.875	77.6338	46.875	75.9577	46.875	77.6623	46.875	75.8839	46.875	77.6533	46.875	75.831	46.875	77.6064	46.875	75.7998	46.875	77.5239	46.875	75.7906	46.875	77.41	46.875	75.8038	46.875	77.2712	46.875	75.839	46.875	77.1151	46.875	75.8956	46.875	76.9493	46.875	75.9729	46.875	76.7812	46.875	76.0696	46.875	76.6165	46.875	76.1842	46.875	76.46	46.875	76.3151
49.8047	77.9439	49.8047	77.7886	49.8047	78.0954	49.8047	77.6342	49.8047	78.2377	49.8047	77.4851	49.8047	78.3654	49.8047	77.3452	49.8047	78.4728	49.8047	77.2177	49.8047	78.5546	49.8047	77.1054	49.8047	78.6059	49.8047	77.0105	49.8047	78.6234	49.8047	76.9348	49.8047	78.6051	49.8047	76.8796	49.8047	78.5514	49.8047	76.8458	49.8047	78.4647	49.8047	76.8337	49.8047	78.35	49.8047	76.8435	49.8047	78.2136	49.8047	76.8747	49.8047	78.063	49.8047	76.9265	49.8047	77.9054	49.8047	76.9979	49.8047	77.7473	49.8047	77.0874	49.8047	77.5937	49.8047	77.1935	49.8047	77.4485	49.8047	77.3144
52.7344	78.5379	52.7344	78.392	52.7344	78.6784	52.7344	78.2454	52.7344	78.8085	52.7344	78.1022	52.7344	78.9233	52.7344	77.9663	52.7344	79.0175	52.7344	77.841	52.7344	79.0864	52.7344	77.7293	52.7344	79.1259	52.7344	77.6335	52.7344	79.1333	52.7344	77.5556	52.7344	79.1071	52.7344	77.4971	52.7344	79.0483	52.7344	77.4591	52.7344	78.9597	52.7344	77.4421	52.7344	78.8462	52.7344	77.4463	52.7344	78.714	52.7344	77.4713	52.7344	78.5702	52.7344	77.5164	52.7344	78.4213	52.7344	77.5805	52.7344	78.2731	52.7344	77.662	52.7344	78.13	52.7344	77.7594	52.7344	77.9952	52.7344	77.871
55.6641	78.8689	55.6641	78.7298	55.6641	79.0023	55.6641	78.5898	55.6641	79.1255	55.6641	78.453	55.6641	79.2335	55.6641	78.3233	55.6641	79.3214	55.6641	78.204	55.6641	79.385	55.6641	78.098	55.6641	79.4206	55.6641	78.0077	55.6641	79.4259	55.6641	77.9351	55.6641	79.4	55.6641	77.8814	55.6641	79.344	55.6641	77.8478	55.6641	79.2609	55.6641	77.8345	55.6641	79.1555	55.6641	77.8415	55.6641	79.0336	55.6641	77.8684	55.6641	78.9015	55.6641	77.9142	55.6641	78.7649	55.6641	77.9776	55.6641	78.6289	55.6641	78.0568	55.6641	78.4971	55.6641	78.1502	55.6641	78.372	55.6641	78.2558
58.5938	78.963	58.5938	78.8273	58.5938	79.0939	58.5938	78.6912	58.5938	79.2155	58.5938	78.5589	58.5938	79.3231	58.5938	78.4342	58.5938	79.4124	58.5938	78.3204	58.5938	79.4795	58.5938	78.2205	58.5938	79.5213	58.5938	78.137	58.5938	79.5358	58.5938	78.0718	58.5938	79.5223	58.5938	78.0265	58.5938	79.4819	58.5938	78.0019	58.5938	79.4171	58.5938	77.9986	58.5938	79.3315	58.5938	78.0165	58.5938	79.2296	58.5938	78.055	58.5938	79.1159	58.5938	78.113	58.5938	78.9945	58.5938	78.1886	58.5938	78.8691	58.5938	78.2796	58.5938	78.7426	58.5938	78.3834	58.5938	78.6177	58.5938	78.4971
61.5234	79.1471	61.5234	79.0186	61.5234	79.2673	61.5234	78.8863	61.5234	79.3742	61.5234	78.7549	61.5234	79.4636	61.5234	78.6287	61.5234	79.5312	61.5234	78.5115	61.5234	79.5738	61.5234	78.4068	61.5234	79.589	61.5234	78.3177	61.5234	79.5759	61.5234	78.2463	61.5234	79.5355	61.5234	78.1943	61.5234	79.4704	61.5234	78.1627	61.5234	79.3849	61.5234	78.1517	61.5234	79.2847	61.5234	78.1609	61.5234	79.1756	61.5234	78.189	61.5234	79.0628	61.5234	78.2343	61.5234	78.9504	61.5234	78.2945	61.5234	78.841	61.5234	78.367	61.5234	78.7356	61.5234	78.4492	61.5234	78.6348	61.5234	78.5391
64.4531	79.3103	64.4531	79.1825	64.4531	79.4288	64.4531	79.0501	64.4531	79.5335	64.4531	78.9175	64.4531	79.6202	64.4531	78.7892	64.4531	79.6849	64.4531	78.6691	64.4531	79.7246	64.4531	78.5609	64.4531	79.7372	64.4531	78.4676	64.4531	79.7222	64.4531	78.3917	64.4531	79.6804	64.4531	78.3352	64.4531	79.6145	64.4531	78.2993	64.4531	79.5287	64.4531	78.2843	64.4531	79.4283	64.4531	78.2901	64.4531	79.3186	64.4531	78.3157	64.4531	79.2047	64.4531	78.3593	64.4531	79.0906	64.4531	78.4189	64.4531	78.9786	64.4531	78.4918	64.4531	78.8703	64.4531	78.5756	64.4531	78.7663	64.4531	78.6677
67.3828	79.4963	67.3828	79.3679	67.3828	79.614	67.3828	79.2332	67.3828	79.7164	67.3828	79.0968	67.3828	79.7996	67.3828	78.9632	67.3828	79.8599	67.3828	78.8364	67.3828	79.8947	67.3828	78.7204	67.3828	79.9021	67.3828	78.6186	67.3828	79.8818	67.3828	78.5339	67.3828	79.835	67.3828	78.4687	67.3828	79.7644	67.3828	78.4244	67.3828	79.6743	67.3828	78.4021	67.3828	79.5697	67.3828	78.4018	67.3828	79.456	67.3828	78.4227	67.3828	79.338	67.3828	78.4635	67.3828	79.2194	67.3828	78.522	67.3828	79.1027	67.3828	78.5957	67.3828	78.9894	67.3828	78.6818	67.3828	78.8805	67.3828	78.7774
70.3125	79.6782	70.3125	79.5564	70.3125	79.7886	70.3125	79.4278	70.3125	79.8834	70.3125	79.2968	70.3125	79.9587	70.3125	79.1677	70.3125	80.0112	70.3125	79.0446	70.3125	80.0383	70.3125	78.9314	70.3125	80.0386	70.3125	78.8314	70.3125	80.0123	70.3125	78.7475	70.3125	79.9609	70.3125	78.6822	70.3125	79.8876	70.3125	78.6369	70.3125	79.797	70.3125	78.6128	70.3125	79.6944	70.3125	78.61	70.3125	79.5851	70.3125	78.6278	70.3125	79.4736	70.3125	78.6648	70.3125	79.363	70.3125	78.7189	70.3125	79.2552	70.3125	78.7873	70.3125	79.151	70.3125	78.8672	70.3125	79.0509	70.3125	78.9558
73.2422	79.8035	73.2422	79.6849	73.2422	79.9106	73.2422	79.5592	73.2422	80.0019	73.2422	79.4311	73.2422	80.0736	73.2422	79.3049	73.2422	80.1224	73.2422	79.1849	73.2422	80.1462	73.2422	79.0751	73.2422	80.144	73.2422	78.9787	73.2422	80.116	73.2422	78.8987	73.2422	80.0644	73.2422	78.8373	73.2422	79.9926	73.2422	78.796	73.2422	79.9053	73.2422	78.7756	73.2422	79.8077	73.2422	78.7759	73.2422	79.705	73.2422	78.7962	73.2422	79.6011	73.2422	78.8347	73.2422	79.4986	73.2422	78.889	73.2422	79.3987	73.2422	78.9564	73.2422	79.302	73.2422	79.0338	73.2422	79.2084	73.2422	79.1186
76.1719	79.9473	76.1719	79.8272	76.1719	80.0554	76.1719	79.6998	76.1719	80.1472	76.1719	79.5701	76.1719	80.2188	76.1719	79.4429	76.1719	80.2669	76.1719	79.3227	76.1719	80.2897	76.1719	79.2137	76.1719	80.2863	76.1719	79.1196	76.1719	80.2573	76.1719	79.0432	76.1719	80.2053	76.1719	78.9867	76.1719	80.134	76.1719	78.9515	76.1719	80.0484	76.1719	78.9376	76.1719	79.9539	76.1719	78.9447	76.1719	79.8555	76.1719	78.9712	76.1719	79.7569	76.1719	79.0149	76.1719	79.6605	76.1719	79.0729	76.1719	79.5671	76.1719	79.1421	76.1719	79.4763	76.1719	79.2193	76.1719	79.3879	76.1719	79.3019
79.1016	80.1074	79.1016	79.9854	79.1016	80.2166	79.1016	79.8555	79.1016	80.3088	79.1016	79.7225	79.1016	80.3804	79.1016	79.5914	79.1016	80.4286	79.1016	79.467	79.1016	80.4515	79.1016	79.3539	79.1016	80.4489	79.1016	79.2562	79.1016	80.4216	79.1016	79.1771	79.1016	80.3722	79.1016	79.119	79.1016	80.3044	79.1016	79.0836	79.1016	80.2229	79.1016	79.0712	79.1016	80.1326	79.1016	79.0813	79.1016	80.038	79.1016	79.1121	79.1016	79.9422	79.1016	79.1613	79.1016	79.8469	79.1016	79.2256	79.1016	79.7526	79.1016	79.3017	79.1016	79.6592	79.1016	79.3858	79.1016	79.5665	79.1016	79.4749
82.0313	80.3601	82.0313	80.2393	82.0313	80.4661	82.0313	80.1085	82.0313	80.5533	82.0313	79.9725	82.0313	80.6183	82.0313	79.8366	82.0313	80.6586	82.0313	79.7058	82.0313	80.6731	82.0313	79.5849	82.0313	80.6617	82.0313	79.4786	82.0313	80.6262	82.0313	79.3907	82.0313	80.5696	82.0313	79.3243	82.0313	80.4963	82.0313	79.2815	82.0313	80.4115	82.0313	79.2634	82.0313	80.32	82.0313	79.2695	82.0313	80.2262	82.0313	79.2986	82.0313	80.1325	82.0313	79.3478	82.0313	80.0399	82.0313	79.4138	82.0313	79.9481	82.0313	79.4924	82.0313	79.8561	82.0313	79.5793	82.0313	79.7635	82.0313	79.6707
84.9609	80.468	84.9609	80.3537	84.9609	80.5643	84.9609	80.2261	84.9609	80.6387	84.9609	80.09	84.9609	80.6881	84.9609	79.9508	84.9609	80.7106	84.9609	79.8138	84.9609	80.7054	84.9609	79.6842	84.9609	80.6733	84.9609	79.5669	84.9609	80.6167	84.9609	79.4665	84.9609	80.54	84.9609	79.3864	84.9609	80.4484	84.9609	79.3294	84.9609	80.3483	84.9609	79.297	84.9609	80.2455	84.9609	79.2893	84.9609	80.1447	84.9609	79.3051	84.9609	80.0485	84.9609	79.3418	84.9609	79.9576	84.9609	79.3959	84.9609	79.8709	84.9609	79.4631	84.9609	79.7864	84.9609	79.5391	84.9609	79.7028	84.9609	79.6199
87.8906	80.5541	87.8906	80.445	87.8906	80.6485	87.8906	80.3255	87.8906	80.7244	87.8906	80.2001	87.8906	80.7785	87.8906	80.0737	87.8906	80.8085	87.8906	79.9505	87.8906	80.8133	87.8906	79.835	87.8906	80.7931	87.8906	79.7308	87.8906	80.7494	87.8906	79.6415	87.8906	80.6854	87.8906	79.5696	87.8906	80.6054	87.8906	79.5172	87.8906	80.5142	87.8906	79.4854	87.8906	80.4169	87.8906	79.4746	87.8906	80.3176	87.8906	79.4842	87.8906	80.2192	87.8906	79.5129	87.8906	80.1232	87.8906	79.5585	87.8906	80.03	87.8906	79.6182	87.8906	79.9395	87.8906	79.6889	87.8906	79.8517	87.8906	79.7676
90.8203	80.6211	90.8203	80.5117	90.8203	80.7151	90.8203	80.3916	90.8203	80.7897	90.8203	80.2661	90.8203	80.8419	90.8203	80.1409	90.8203	80.8701	90.8203	80.0216	90.8203	80.8741	90.8203	79.9137	90.8203	80.8552	90.8203	79.8219	90.8203	80.8165	90.8203	79.7502	90.8203	80.7624	90.8203	79.7015	90.8203	80.6983	90.8203	79.6771	90.8203	80.6297	90.8203	79.6772	90.8203	80.5612	90.8203	79.7002	90.8203	80.4957	90.8203	79.7434	90.8203	80.434	90.8203	79.8029	90.8203	80.3747	90.8203	79.8742	90.8203	80.3152	90.8203	79.9524	90.8203	80.2526	90.8203	80.0327	90.8203	80.1847	90.8203	80.111
93.75	80.8327	93.75	80.72	93.75	80.9257	93.75	80.5923	93.75	80.9953	93.75	80.455	93.75	81.0389	93.75	80.3141	93.75	81.0554	93.75	80.1758	93.75	81.0453	93.75	80.0464	93.75	81.0108	93.75	79.932	93.75	80.956	93.75	79.8378	93.75	80.8864	93.75	79.7682	93.75	80.8085	93.75	79.726	93.75	80.7285	93.75	79.7125	93.75	80.6514	93.75	79.7269	93.75	80.58	93.75	79.7665	93.75	80.5142	93.75	79.8272	93.75	80.4517	93.75	79.9035	93.75	80.3887	93.75	79.9892	93.75	80.3213	93.75	80.0783	93.75	80.2471	93.75	80.1655
96.6797	81.1856	96.6797	81.0804	96.6797	81.2693	96.6797	80.9577	96.6797	81.3279	96.6797	80.8225	96.6797	81.359	96.6797	80.6799	96.6797	81.3612	96.6797	80.5352	96.6797	81.3348	96.6797	80.394	96.6797	81.2816	96.6797	80.2615	96.6797	81.2055	96.6797	80.1431	96.6797	81.1117	96.6797	80.0433	96.6797	81.0069	96.6797	79.966	96.6797	80.8979	96.6797	79.9139	96.6797	80.7905	96.6797	79.8884	96.6797	80.6888	96.6797	79.8891	96.6797	80.5943	96.6797	79.914	96.6797	80.5061	96.6797	79.9598	96.6797	80.422	96.6797	80.0219	96.6797	80.3395	96.6797	80.0952	96.6797	80.257	96.6797	80.1748
102.539	81.2972	102.539	81.1985	102.539	81.3753	102.539	81.084	102.539	81.4289	102.539	80.959	102.539	81.4555	102.539	80.8292	102.539	81.4537	102.539	80.7005	102.539	81.4244	102.539	80.5784	102.539	81.3703	102.539	80.4683	102.539	81.2963	102.539	80.3748	102.539	81.209	102.539	80.3016	102.539	81.1161	102.539	80.2513	102.539	81.0254	102.539	80.2252	102.539	80.9426	102.539	80.2232	102.539	80.8709	102.539	80.2435	102.539	80.8101	102.539	80.2828	102.539	80.7569	102.539	80.3369	102.539	80.7067	102.539	80.4005	102.539	80.6548	102.539	80.4682	102.539	80.5979	102.539	80.5352
105.469	81.4695	105.469	81.3709	105.469	81.5454	105.469	81.2545	105.469	81.5946	105.469	81.1257	105.469	81.6144	105.469	80.9907	105.469	81.6037	105.469	80.8555	105.469	81.5635	105.469	80.7263	105.469	81.4967	105.469	80.6087	105.469	81.4088	105.469	80.5081	105.469	81.3072	105.469	80.4284	105.469	81.2007	105.469	80.3728	105.469	81.098	105.469	80.3427	105.469	81.0063	105.469	80.3376	105.469	80.9295	105.469	80.3555	105.469	80.8677	105.469	80.3927	105.469	80.8175	105.469	80.4441	105.469	80.7732	105.469	80.5038	105.469	80.7291	105.469	80.5661	105.469	80.6808	105.469	80.6262
108.398	81.6438	108.398	81.5403	108.398	81.7241	108.398	81.4187	108.398	81.777	108.398	81.2847	108.398	81.7997	108.398	81.1445	108.398	81.7911	108.398	81.0046	108.398	81.7517	108.398	80.8711	108.398	81.6848	108.398	80.7501	108.398	81.5955	108.398	80.6467	108.398	81.4912	108.398	80.565	108.398	81.3808	108.398	80.5081	108.398	81.273	108.398	80.4772	108.398	81.1753	108.398	80.4719	108.398	81.092	108.398	80.4897	108.398	81.0236	108.398	80.5269	108.398	80.9673	108.398	80.5783	108.398	80.9179	108.398	80.6383	108.398	80.8698	108.398	80.7011	108.398	80.8185	108.398	80.7621
