"SPL Horizontal"																																																																							
"On-Axis"		"10°"		"-10°"		"20°"		"-20°"		"30°"		"-30°"		"40°"		"-40°"		"50°"		"-50°"		"60°"		"-60°"		"70°"		"-70°"		"80°"		"-80°"		"90°"		"-90°"		"100°"		"-100°"		"110°"		"-110°"		"120°"		"-120°"		"130°"		"-130°"		"140°"		"-140°"		"150°"		"-150°"		"160°"		"-160°"		"170°"		"-170°"		"180°"	
"Frequency / Hz"	"Sound Pressure Level / dB (re 20 µPa/V)  [2.83  V @ 1. m]"	"Frequency / Hz"	"Sound Pressure Level / dB (re 20 µPa/V)  [2.83  V @ 1. m]"	"Frequency / Hz"	"Sound Pressure Level / dB (re 20 µPa/V)  [2.83  V @ 1. m]"	"Frequency / Hz"	"Sound Pressure Level / dB (re 20 µPa/V)  [2.83  V @ 1. m]"	"Frequency / Hz"	"Sound Pressure Level / dB (re 20 µPa/V)  [2.83  V @ 1. m]"	"Frequency / Hz"	"Sound Pressure Level / dB (re 20 µPa/V)  [2.83  V @ 1. m]"	"Frequency / Hz"	"Sound Pressure Level / dB (re 20 µPa/V)  [2.83  V @ 1. m]"	"Frequency / Hz"	"Sound Pressure Level / dB (re 20 µPa/V)  [2.83  V @ 1. m]"	"Frequency / Hz"	"Sound Pressure Level / dB (re 20 µPa/V)  [2.83  V @ 1. m]"	"Frequency / Hz"	"Sound Pressure Level / dB (re 20 µPa/V)  [2.83  V @ 1. m]"	"Frequency / Hz"	"Sound Pressure Level / dB (re 20 µPa/V)  [2.83  V @ 1. m]"	"Frequency / Hz"	"Sound Pressure Level / dB (re 20 µPa/V)  [2.83  V @ 1. m]"	"Frequency / Hz"	"Sound Pressure Level / dB (re 20 µPa/V)  [2.83  V @ 1. m]"	"Frequency / Hz"	"Sound Pressure Level / dB (re 20 µPa/V)  [2.83  V @ 1. m]"	"Frequency / Hz"	"Sound Pressure Level / dB (re 20 µPa/V)  [2.83  V @ 1. m]"	"Frequency / Hz"	"Sound Pressure Level / dB (re 20 µPa/V)  [2.83  V @ 1. m]"	"Frequency / Hz"	"Sound Pressure Level / dB (re 20 µPa/V)  [2.83  V @ 1. m]"	"Frequency / Hz"	"Sound Pressure Level / dB (re 20 µPa/V)  [2.83  V @ 1. m]"	"Frequency / Hz"	"Sound Pressure Level / dB (re 20 µPa/V)  [2.83  V @ 1. m]"	"Frequency / Hz"	"Sound Pressure Level / dB (re 20 µPa/V)  [2.83  V @ 1. m]"	"Frequency / Hz"	"Sound Pressure Level / dB (re 20 µPa/V)  [2.83  V @ 1. m]"	"Frequency / Hz"	"Sound Pressure Level / dB (re 20 µPa/V)  [2.83  V @ 1. m]"	"Frequency / Hz"	"Sound Pressure Level / dB (re 20 µPa/V)  [2.83  V @ 1. m]"	"Frequency / Hz"	"Sound Pressure Level / dB (re 20 µPa/V)  [2.83  V @ 1. m]"	"Frequency / Hz"	"Sound Pressure Level / dB (re 20 µPa/V)  [2.83  V @ 1. m]"	"Frequency / Hz"	"Sound Pressure Level / dB (re 20 µPa/V)  [2.83  V @ 1. m]"	"Frequency / Hz"	"Sound Pressure Level / dB (re 20 µPa/V)  [2.83  V @ 1. m]"	"Frequency / Hz"	"Sound Pressure Level / dB (re 20 µPa/V)  [2.83  V @ 1. m]"	"Frequency / Hz"	"Sound Pressure Level / dB (re 20 µPa/V)  [2.83  V @ 1. m]"	"Frequency / Hz"	"Sound Pressure Level / dB (re 20 µPa/V)  [2.83  V @ 1. m]"	"Frequency / Hz"	"Sound Pressure Level / dB (re 20 µPa/V)  [2.83  V @ 1. m]"	"Frequency / Hz"	"Sound Pressure Level / dB (re 20 µPa/V)  [2.83  V @ 1. m]"	"Frequency / Hz"	"Sound Pressure Level / dB (re 20 µPa/V)  [2.83  V @ 1. m]"	"Frequency / Hz"	"Sound Pressure Level / dB (re 20 µPa/V)  [2.83  V @ 1. m]"	"Frequency / Hz"	"Sound Pressure Level / dB (re 20 µPa/V)  [2.83  V @ 1. m]"	"Frequency / Hz"	"Sound Pressure Level / dB (re 20 µPa/V)  [2.83  V @ 1. m]"
20.5078	36.5312	20.5078	36.6487	20.5078	36.4303	20.5078	36.7783	20.5078	36.3487	20.5078	36.9143	20.5078	36.2872	20.5078	37.0499	20.5078	36.2454	20.5078	37.1779	20.5078	36.2216	20.5078	37.2913	20.5078	36.2133	20.5078	37.3838	20.5078	36.2181	20.5078	37.4503	20.5078	36.2339	20.5078	37.4876	20.5078	36.2595	20.5078	37.4944	20.5078	36.2943	20.5078	37.4715	20.5078	36.3378	20.5078	37.4218	20.5078	36.39	20.5078	37.3498	20.5078	36.4504	20.5078	37.2613	20.5078	36.5182	20.5078	37.1623	20.5078	36.593	20.5078	37.0588	20.5078	36.6744	20.5078	36.9556	20.5078	36.7621	20.5078	36.8561
21.9727	36.3736	21.9727	36.4711	21.9727	36.2956	21.9727	36.5825	21.9727	36.2412	21.9727	36.7007	21.9727	36.2123	21.9727	36.8185	21.9727	36.2083	21.9727	36.9288	21.9727	36.2267	21.9727	37.0253	21.9727	36.2628	21.9727	37.1032	21.9727	36.3111	21.9727	37.1586	21.9727	36.3652	21.9727	37.1896	21.9727	36.4194	21.9727	37.1954	21.9727	36.469	21.9727	37.1767	21.9727	36.511	21.9727	37.1361	21.9727	36.5447	21.9727	37.0775	21.9727	36.5711	21.9727	37.0063	21.9727	36.5932	21.9727	36.929	21.9727	36.615	21.9727	36.8523	21.9727	36.6413	21.9727	36.7822	21.9727	36.6763	21.9727	36.723
23.4375	33.2812	23.4375	33.254	23.4375	33.2899	23.4375	33.2104	23.4375	33.2785	23.4375	33.153	23.4375	33.2461	23.4375	33.0846	23.4375	33.1926	23.4375	33.0083	23.4375	33.1187	23.4375	32.9274	23.4375	33.0264	23.4375	32.8447	23.4375	32.9189	23.4375	32.763	23.4375	32.8009	23.4375	32.6842	23.4375	32.6782	23.4375	32.6098	23.4375	32.5576	23.4375	32.5405	23.4375	32.4461	23.4375	32.4765	23.4375	32.3496	23.4375	32.4176	23.4375	32.2729	23.4375	32.3635	23.4375	32.2183	23.4375	32.314	23.4375	32.186	23.4375	32.2695	23.4375	32.1744	23.4375	32.231	23.4375	32.1804	23.4375	32.2004
24.9023	38.1501	24.9023	38.188	24.9023	38.1136	24.9023	38.2266	24.9023	38.0793	24.9023	38.2657	24.9023	38.0481	24.9023	38.3047	24.9023	38.0215	24.9023	38.3432	24.9023	38.001	24.9023	38.3807	24.9023	37.9883	24.9023	38.4165	24.9023	37.9851	24.9023	38.4497	24.9023	37.9929	24.9023	38.4793	24.9023	38.0125	24.9023	38.5042	24.9023	38.044	24.9023	38.5236	24.9023	38.0865	24.9023	38.5365	24.9023	38.1377	24.9023	38.5425	24.9023	38.195	24.9023	38.5412	24.9023	38.2547	24.9023	38.5324	24.9023	38.3136	24.9023	38.5158	24.9023	38.3685	24.9023	38.4912	24.9023	38.4172	24.9023	38.4583
26.3672	38.1487	26.3672	38.0817	26.3672	38.2044	26.3672	38.0052	26.3672	38.2479	26.3672	37.9218	26.3672	38.2785	26.3672	37.8344	26.3672	38.2962	26.3672	37.7468	26.3672	38.3012	26.3672	37.6625	26.3672	38.294	26.3672	37.5851	26.3672	38.2751	26.3672	37.5176	26.3672	38.245	26.3672	37.4622	26.3672	38.2044	26.3672	37.4202	26.3672	38.1536	26.3672	37.3921	26.3672	38.0934	26.3672	37.3777	26.3672	38.0248	26.3672	37.3769	26.3672	37.9494	26.3672	37.389	26.3672	37.8693	26.3672	37.4139	26.3672	37.7873	26.3672	37.4511	26.3672	37.7064	26.3672	37.5002	26.3672	37.6298	26.3672	37.5603
27.832	41.4949	27.832	41.4893	27.832	41.5093	27.832	41.4926	27.832	41.532	27.832	41.5049	27.832	41.5625	27.832	41.5257	27.832	41.6006	27.832	41.5546	27.832	41.6462	27.832	41.5912	27.832	41.699	27.832	41.6351	27.832	41.7588	27.832	41.6863	27.832	41.8248	27.832	41.7447	27.832	41.8955	27.832	41.8096	27.832	41.9689	27.832	41.8802	27.832	42.0421	27.832	41.9544	27.832	42.1121	27.832	42.0295	27.832	42.1755	27.832	42.1019	27.832	42.2289	27.832	42.168	27.832	42.2694	27.832	42.2239	27.832	42.2945	27.832	42.2664	27.832	42.3027	27.832	42.2932
29.2969	41.7649	29.2969	41.7491	29.2969	41.7786	29.2969	41.7312	29.2969	41.7901	29.2969	41.7113	29.2969	41.7991	29.2969	41.6894	29.2969	41.8055	29.2969	41.6658	29.2969	41.8093	29.2969	41.641	29.2969	41.8103	29.2969	41.6158	29.2969	41.8087	29.2969	41.5912	29.2969	41.8045	29.2969	41.5686	29.2969	41.7978	29.2969	41.5493	29.2969	41.7885	29.2969	41.5349	29.2969	41.7765	29.2969	41.5264	29.2969	41.7617	29.2969	41.5248	29.2969	41.7437	29.2969	41.5306	29.2969	41.7225	29.2969	41.5434	29.2969	41.6983	29.2969	41.5626	29.2969	41.6714	29.2969	41.5867	29.2969	41.6429	29.2969	41.6141
30.7617	42.5495	30.7617	42.5287	30.7617	42.5647	30.7617	42.5024	30.7617	42.5747	30.7617	42.4711	30.7617	42.58	30.7617	42.4361	30.7617	42.5812	30.7617	42.3988	30.7617	42.5789	30.7617	42.3612	30.7617	42.5738	30.7617	42.3252	30.7617	42.5659	30.7617	42.2927	30.7617	42.5556	30.7617	42.2651	30.7617	42.5426	30.7617	42.2431	30.7617	42.5268	30.7617	42.2275	30.7617	42.5081	30.7617	42.2183	30.7617	42.486	30.7617	42.2159	30.7617	42.4607	30.7617	42.2204	30.7617	42.4321	30.7617	42.2317	30.7617	42.4009	30.7617	42.2498	30.7617	42.3679	30.7617	42.2738	30.7617	42.3345	30.7617	42.3026
32.2266	43.6311	32.2266	43.5929	32.2266	43.665	32.2266	43.5512	32.2266	43.6939	32.2266	43.5071	32.2266	43.7169	32.2266	43.4616	32.2266	43.7336	32.2266	43.4159	32.2266	43.7435	32.2266	43.3713	32.2266	43.7463	32.2266	43.3293	32.2266	43.7419	32.2266	43.2913	32.2266	43.7304	32.2266	43.2587	32.2266	43.7122	32.2266	43.2326	32.2266	43.6875	32.2266	43.2141	32.2266	43.657	32.2266	43.2043	32.2266	43.6211	32.2266	43.2039	32.2266	43.5805	32.2266	43.2135	32.2266	43.5359	32.2266	43.233	32.2266	43.4883	32.2266	43.2618	32.2266	43.439	32.2266	43.2987	32.2266	43.3895	32.2266	43.342
33.6914	45.0783	33.6914	45.0473	33.6914	45.1074	33.6914	45.0149	33.6914	45.1344	33.6914	44.9821	33.6914	45.1591	33.6914	44.9498	33.6914	45.1814	33.6914	44.9197	33.6914	45.2012	33.6914	44.8932	33.6914	45.2181	33.6914	44.872	33.6914	45.2321	33.6914	44.8573	33.6914	45.2425	33.6914	44.8501	33.6914	45.249	33.6914	44.8508	33.6914	45.2511	33.6914	44.8594	33.6914	45.2481	33.6914	44.8757	33.6914	45.2397	33.6914	44.899	33.6914	45.2255	33.6914	44.9282	33.6914	45.2056	33.6914	44.9622	33.6914	45.1801	33.6914	44.9995	33.6914	45.1496	33.6914	45.0384	33.6914	45.115	33.6914	45.0774
35.1562	45.7093	35.1562	45.6709	35.1562	45.7441	35.1562	45.6297	35.1562	45.7751	35.1562	45.5868	35.1562	45.8021	35.1562	45.5437	35.1562	45.825	35.1562	45.5023	35.1562	45.8439	35.1562	45.4646	35.1562	45.8588	35.1562	45.4328	35.1562	45.8697	35.1562	45.4087	35.1562	45.8766	35.1562	45.3941	35.1562	45.8794	35.1562	45.39	35.1562	45.8779	35.1562	45.397	35.1562	45.8716	35.1562	45.4148	35.1562	45.8602	35.1562	45.4427	35.1562	45.8431	35.1562	45.4791	35.1562	45.8198	35.1562	45.5222	35.1562	45.7902	35.1562	45.5694	35.1562	45.7543	35.1562	45.6185	35.1562	45.7129	35.1562	45.667
36.6211	47.3421	36.6211	47.3296	36.6211	47.3493	36.6211	47.3125	36.6211	47.3504	36.6211	47.2919	36.6211	47.3452	36.6211	47.2686	36.6211	47.3336	36.6211	47.2435	36.6211	47.3158	36.6211	47.2173	36.6211	47.2925	36.6211	47.1905	36.6211	47.265	36.6211	47.1636	36.6211	47.2346	36.6211	47.137	36.6211	47.2028	36.6211	47.1112	36.6211	47.1711	36.6211	47.0869	36.6211	47.1409	36.6211	47.0649	36.6211	47.1129	36.6211	47.0459	36.6211	47.088	36.6211	47.0307	36.6211	47.0663	36.6211	47.0198	36.6211	47.048	36.6211	47.0135	36.6211	47.0332	36.6211	47.0119	36.6211	47.0221	36.6211	47.0149
38.0859	47.6293	38.0859	47.602	38.0859	47.6545	38.0859	47.5736	38.0859	47.6768	38.0859	47.5447	38.0859	47.6952	38.0859	47.5164	38.0859	47.7092	38.0859	47.4893	38.0859	47.7182	38.0859	47.4643	38.0859	47.722	38.0859	47.4421	38.0859	47.7209	38.0859	47.4235	38.0859	47.7152	38.0859	47.4093	38.0859	47.7056	38.0859	47.4001	38.0859	47.6927	38.0859	47.3968	38.0859	47.6771	38.0859	47.3996	38.0859	47.6593	38.0859	47.4085	38.0859	47.6395	38.0859	47.4231	38.0859	47.6179	38.0859	47.4426	38.0859	47.5947	38.0859	47.4656	38.0859	47.57	38.0859	47.491	38.0859	47.5441	38.0859	47.5175
39.5508	49.0235	39.5508	48.9998	39.5508	49.0495	39.5508	48.9791	39.5508	49.0768	39.5508	48.9623	39.5508	49.1046	39.5508	48.95	39.5508	49.1318	39.5508	48.9425	39.5508	49.1577	39.5508	48.9402	39.5508	49.1816	39.5508	48.943	39.5508	49.2029	39.5508	48.9509	39.5508	49.2213	39.5508	48.9634	39.5508	49.2363	39.5508	48.9802	39.5508	49.2479	39.5508	49.0008	39.5508	49.2557	39.5508	49.0247	39.5508	49.2594	39.5508	49.0511	39.5508	49.2589	39.5508	49.0792	39.5508	49.254	39.5508	49.1082	39.5508	49.2444	39.5508	49.137	39.5508	49.2303	39.5508	49.1645	39.5508	49.212	39.5508	49.1898
41.0156	49.2717	41.0156	49.2445	41.0156	49.2939	41.0156	49.2132	41.0156	49.3101	41.0156	49.1788	41.0156	49.3196	41.0156	49.1424	41.0156	49.322	41.0156	49.105	41.0156	49.317	41.0156	49.0677	41.0156	49.3046	41.0156	49.0314	41.0156	49.2855	41.0156	48.9969	41.0156	49.2606	41.0156	48.9648	41.0156	49.2309	41.0156	48.9359	41.0156	49.1978	41.0156	48.9109	41.0156	49.1623	41.0156	48.8905	41.0156	49.1253	41.0156	48.8756	41.0156	49.0874	41.0156	48.8673	41.0156	49.0491	41.0156	48.8665	41.0156	49.0111	41.0156	48.8737	41.0156	48.9745	41.0156	48.889	41.0156	48.9408	41.0156	48.9117
42.4805	50.2209	42.4805	50.2095	42.4805	50.2334	42.4805	50.1997	42.4805	50.2465	42.4805	50.1914	42.4805	50.2593	42.4805	50.1847	42.4805	50.271	42.4805	50.1792	42.4805	50.2807	42.4805	50.1743	42.4805	50.2874	42.4805	50.1696	42.4805	50.2904	42.4805	50.1645	42.4805	50.2888	42.4805	50.1588	42.4805	50.2825	42.4805	50.1523	42.4805	50.2716	42.4805	50.1452	42.4805	50.2565	42.4805	50.1379	42.4805	50.2381	42.4805	50.1309	42.4805	50.2175	42.4805	50.1251	42.4805	50.1963	42.4805	50.1214	42.4805	50.1758	42.4805	50.1206	42.4805	50.1574	42.4805	50.1236	42.4805	50.1421	42.4805	50.1307
43.9453	51.1863	43.9453	51.1516	43.9453	51.2159	43.9453	51.1128	43.9453	51.2395	43.9453	51.071	43.9453	51.2565	43.9453	51.0273	43.9453	51.2663	43.9453	50.9828	43.9453	51.2684	43.9453	50.9388	43.9453	51.2627	43.9453	50.8964	43.9453	51.2492	43.9453	50.8568	43.9453	51.2282	43.9453	50.821	43.9453	51.2001	43.9453	50.79	43.9453	51.1657	43.9453	50.7648	43.9453	51.1258	43.9453	50.7464	43.9453	51.0815	43.9453	50.7355	43.9453	51.0343	43.9453	50.7328	43.9453	50.9855	43.9453	50.7388	43.9453	50.9368	43.9453	50.7537	43.9453	50.8899	43.9453	50.7772	43.9453	50.8466	43.9453	50.8086
45.4102	51.4217	45.4102	51.4081	45.4102	51.4334	45.4102	51.3928	45.4102	51.4431	45.4102	51.376	45.4102	51.4505	45.4102	51.358	45.4102	51.4557	45.4102	51.3392	45.4102	51.4586	45.4102	51.3202	45.4102	51.4591	45.4102	51.3016	45.4102	51.4574	45.4102	51.2843	45.4102	51.4536	45.4102	51.2692	45.4102	51.4476	45.4102	51.2572	45.4102	51.4395	45.4102	51.2492	45.4102	51.4296	45.4102	51.2458	45.4102	51.4177	45.4102	51.2474	45.4102	51.404	45.4102	51.2538	45.4102	51.3886	45.4102	51.2646	45.4102	51.3717	45.4102	51.2791	45.4102	51.3534	45.4102	51.2962	45.4102	51.3343	45.4102	51.3149
46.875	52.6005	46.875	52.5826	46.875	52.6143	46.875	52.5611	46.875	52.6236	46.875	52.5364	46.875	52.6281	46.875	52.5088	46.875	52.6273	46.875	52.4789	46.875	52.6211	46.875	52.4471	46.875	52.6092	46.875	52.4139	46.875	52.5918	46.875	52.3799	46.875	52.569	46.875	52.346	46.875	52.5412	46.875	52.3131	46.875	52.5091	46.875	52.2825	46.875	52.4734	46.875	52.2554	46.875	52.4352	46.875	52.2332	46.875	52.3958	46.875	52.2173	46.875	52.3566	46.875	52.2088	46.875	52.3191	46.875	52.2084	46.875	52.2849	46.875	52.2163	46.875	52.2554	46.875	52.2322
48.3398	53.3386	48.3398	53.3161	48.3398	53.3567	48.3398	53.29	48.3398	53.3697	48.3398	53.2612	48.3398	53.3768	48.3398	53.2307	48.3398	53.3777	48.3398	53.1995	48.3398	53.372	48.3398	53.1685	48.3398	53.3596	48.3398	53.1387	48.3398	53.3406	48.3398	53.1108	48.3398	53.3156	48.3398	53.0854	48.3398	53.2856	48.3398	53.0631	48.3398	53.2517	48.3398	53.044	48.3398	53.2155	48.3398	53.0284	48.3398	53.1786	48.3398	53.0166	48.3398	53.1428	48.3398	53.0085	48.3398	53.1093	48.3398	53.0046	48.3398	53.0796	48.3398	53.0048	48.3398	53.0544	48.3398	53.0097	48.3398	53.0343	48.3398	53.0194
51.2695	55.0741	51.2695	55.0453	51.2695	55.0973	51.2695	55.0115	51.2695	55.1145	51.2695	54.9735	51.2695	55.1256	51.2695	54.9323	51.2695	55.1306	51.2695	54.8893	51.2695	55.1297	51.2695	54.846	51.2695	55.123	51.2695	54.8042	51.2695	55.1108	51.2695	54.7653	51.2695	55.0934	51.2695	54.7312	51.2695	55.0711	51.2695	54.7031	51.2695	55.0446	51.2695	54.6823	51.2695	55.0142	51.2695	54.6694	51.2695	54.9805	51.2695	54.6651	51.2695	54.9444	51.2695	54.6691	51.2695	54.9065	51.2695	54.6812	51.2695	54.8677	51.2695	54.7005	51.2695	54.829	51.2695	54.7262	51.2695	54.7918	51.2695	54.7571
52.7344	55.6912	52.7344	55.6749	52.7344	55.7035	52.7344	55.655	52.7344	55.7115	52.7344	55.6321	52.7344	55.7153	52.7344	55.6069	52.7344	55.7148	52.7344	55.5805	52.7344	55.7103	52.7344	55.5537	52.7344	55.7021	52.7344	55.5277	52.7344	55.6905	52.7344	55.5036	52.7344	55.676	52.7344	55.4822	52.7344	55.6591	52.7344	55.4643	52.7344	55.6402	52.7344	55.4506	52.7344	55.6199	52.7344	55.4414	52.7344	55.5986	52.7344	55.4369	52.7344	55.5768	52.7344	55.4369	52.7344	55.555	52.7344	55.4413	52.7344	55.5336	52.7344	55.4498	52.7344	55.5131	52.7344	55.4617	52.7344	55.4939	52.7344	55.4766
54.1992	56.216	54.1992	56.1991	54.1992	56.2286	54.1992	56.1783	54.1992	56.2364	54.1992	56.1543	54.1992	56.2389	54.1992	56.1274	54.1992	56.2358	54.1992	56.0983	54.1992	56.2266	54.1992	56.0675	54.1992	56.2112	54.1992	56.0355	54.1992	56.1895	54.1992	56.0032	54.1992	56.1619	54.1992	55.971	54.1992	56.1291	54.1992	55.9397	54.1992	56.092	54.1992	55.9102	54.1992	56.0521	54.1992	55.8832	54.1992	56.0109	54.1992	55.8598	54.1992	55.9701	54.1992	55.8409	54.1992	55.9316	54.1992	55.8277	54.1992	55.897	54.1992	55.8209	54.1992	55.8677	54.1992	55.8213	54.1992	55.8449	54.1992	55.8293
55.6641	56.9136	55.6641	56.9041	55.6641	56.9216	55.6641	56.8933	55.6641	56.9278	55.6641	56.8818	55.6641	56.9318	55.6641	56.8697	55.6641	56.9335	55.6641	56.8574	55.6641	56.9325	55.6641	56.8451	55.6641	56.9289	55.6641	56.833	55.6641	56.9226	55.6641	56.8214	55.6641	56.9136	55.6641	56.8103	55.6641	56.9023	55.6641	56.7999	55.6641	56.8888	55.6641	56.7905	55.6641	56.8736	55.6641	56.7822	55.6641	56.8574	55.6641	56.7755	55.6641	56.8408	55.6641	56.7705	55.6641	56.8246	55.6641	56.7678	55.6641	56.8093	55.6641	56.7677	55.6641	56.7959	55.6641	56.7705	55.6641	56.7846	55.6641	56.7761
58.5938	58.2901	58.5938	58.2732	58.5938	58.3029	58.5938	58.2532	58.5938	58.3109	58.5938	58.2307	58.5938	58.3134	58.5938	58.2069	58.5938	58.3099	58.5938	58.1823	58.5938	58.3001	58.5938	58.1577	58.5938	58.284	58.5938	58.1337	58.5938	58.262	58.5938	58.1105	58.5938	58.2347	58.5938	58.0884	58.5938	58.2033	58.5938	58.0675	58.5938	58.1691	58.5938	58.0479	58.5938	58.1339	58.5938	58.0297	58.5938	58.0994	58.5938	58.0132	58.5938	58.0671	58.5938	57.999	58.5938	58.0384	58.5938	57.9875	58.5938	58.0146	58.5938	57.9795	58.5938	57.9962	58.5938	57.9758	58.5938	57.9837	58.5938	57.977
60.0586	59.091	60.0586	59.1028	60.0586	59.0745	60.0586	59.1096	60.0586	59.0534	60.0586	59.1113	60.0586	59.0282	60.0586	59.1079	60.0586	58.9995	60.0586	59.0995	60.0586	58.968	60.0586	59.0863	60.0586	58.9344	60.0586	59.0684	60.0586	58.8997	60.0586	59.0462	60.0586	58.8649	60.0586	59.0201	60.0586	58.8313	60.0586	58.9907	60.0586	58.8	60.0586	58.9587	60.0586	58.7721	60.0586	58.9249	60.0586	58.7488	60.0586	58.8903	60.0586	58.7312	60.0586	58.8559	60.0586	58.7198	60.0586	58.8229	60.0586	58.7154	60.0586	58.7924	60.0586	58.7181	60.0586	58.7657	60.0586	58.7277	60.0586	58.7438
62.9883	59.9396	62.9883	59.9408	62.9883	59.9331	62.9883	59.9368	62.9883	59.9214	62.9883	59.9278	62.9883	59.9048	62.9883	59.9142	62.9883	59.8836	62.9883	59.8966	62.9883	59.8588	62.9883	59.8755	62.9883	59.831	62.9883	59.8516	62.9883	59.8013	62.9883	59.8257	62.9883	59.7708	62.9883	59.7986	62.9883	59.7405	62.9883	59.771	62.9883	59.7116	62.9883	59.7438	62.9883	59.6849	62.9883	59.7177	62.9883	59.6615	62.9883	59.6933	62.9883	59.642	62.9883	59.6712	62.9883	59.6269	62.9883	59.652	62.9883	59.6167	62.9883	59.6359	62.9883	59.6113	62.9883	59.6235	62.9883	59.6108	62.9883	59.615
64.4531	60.4542	64.4531	60.4449	64.4531	60.4591	64.4531	60.4316	64.4531	60.4591	64.4531	60.415	64.4531	60.454	64.4531	60.3958	64.4531	60.4438	64.4531	60.3746	64.4531	60.4288	64.4531	60.3522	64.4531	60.4096	64.4531	60.3289	64.4531	60.3866	64.4531	60.3053	64.4531	60.3607	64.4531	60.2819	64.4531	60.3329	64.4531	60.2592	64.4531	60.3042	64.4531	60.2375	64.4531	60.2757	64.4531	60.2174	64.4531	60.2484	64.4531	60.1993	64.4531	60.2234	64.4531	60.1838	64.4531	60.2015	64.4531	60.1714	64.4531	60.1835	64.4531	60.1625	64.4531	60.17	64.4531	60.1576	64.4531	60.1612	64.4531	60.1571
67.3828	61.7534	67.3828	61.7427	67.3828	61.759	67.3828	61.7273	67.3828	61.7592	67.3828	61.7081	67.3828	61.7539	67.3828	61.6857	67.3828	61.7433	67.3828	61.6613	67.3828	61.7278	67.3828	61.6357	67.3828	61.7081	67.3828	61.6099	67.3828	61.6849	67.3828	61.5849	67.3828	61.6593	67.3828	61.5614	67.3828	61.6321	67.3828	61.5401	67.3828	61.6045	67.3828	61.5213	67.3828	61.5774	67.3828	61.5053	67.3828	61.552	67.3828	61.492	67.3828	61.529	67.3828	61.4815	67.3828	61.5092	67.3828	61.4737	67.3828	61.4929	67.3828	61.4686	67.3828	61.4806	67.3828	61.4665	67.3828	61.4722	67.3828	61.4676
