"SPL Vertical"
"On-Axis"		"10°"		"-10°"		"20°"		"-20°"		"30°"		"-30°"		"40°"		"-40°"		"50°"		"-50°"		"60°"		"-60°"		"70°"		"-70°"		"80°"		"-80°"		"90°"		"-90°"		"100°"		"-100°"		"110°"		"-110°"		"120°"		"-120°"		"130°"		"-130°"		"140°"		"-140°"		"150°"		"-150°"		"160°"		"-160°"		"170°"		"-170°"		"180°"
"Frequency / Hz"	"Sound Pressure Level / dB (re 20 µPa/V)  [2.83  V @ 1. m]"	"Frequency / Hz"	"Sound Pressure Level / dB (re 20 µPa/V)  [2.83  V @ 1. m]"	"Frequency / Hz"	"Sound Pressure Level / dB (re 20 µPa/V)  [2.83  V @ 1. m]"	"Frequency / Hz"	"Sound Pressure Level / dB (re 20 µPa/V)  [2.83  V @ 1. m]"	"Frequency / Hz"	"Sound Pressure Level / dB (re 20 µPa/V)  [2.83  V @ 1. m]"	"Frequency / Hz"	"Sound Pressure Level / dB (re 20 µPa/V)  [2.83  V @ 1. m]"	"Frequency / Hz"	"Sound Pressure Level / dB (re 20 µPa/V)  [2.83  V @ 1. m]"	"Frequency / Hz"	"Sound Pressure Level / dB (re 20 µPa/V)  [2.83  V @ 1. m]"	"Frequency / Hz"	"Sound Pressure Level / dB (re 20 µPa/V)  [2.83  V @ 1. m]"	"Frequency / Hz"	"Sound Pressure Level / dB (re 20 µPa/V)  [2.83  V @ 1. m]"	"Frequency / Hz"	"Sound Pressure Level / dB (re 20 µPa/V)  [2.83  V @ 1. m]"	"Frequency / Hz"	"Sound Pressure Level / dB (re 20 µPa/V)  [2.83  V @ 1. m]"	"Frequency / Hz"	"Sound Pressure Level / dB (re 20 µPa/V)  [2.83  V @ 1. m]"	"Frequency / Hz"	"Sound Pressure Level / dB (re 20 µPa/V)  [2.83  V @ 1. m]"	"Frequency / Hz"	"Sound Pressure Level / dB (re 20 µPa/V)  [2.83  V @ 1. m]"	"Frequency / Hz"	"Sound Pressure Level / dB (re 20 µPa/V)  [2.83  V @ 1. m]"	"Frequency / Hz"	"Sound Pressure Level / dB (re 20 µPa/V)  [2.83  V @ 1. m]"	"Frequency / Hz"	"Sound Pressure Level / dB (re 20 µPa/V)  [2.83  V @ 1. m]"	"Frequency / Hz"	"Sound Pressure Level / dB (re 20 µPa/V)  [2.83  V @ 1. m]"	"Frequency / Hz"	"Sound Pressure Level / dB (re 20 µPa/V)  [2.83  V @ 1. m]"	"Frequency / Hz"	"Sound Pressure Level / dB (re 20 µPa/V)  [2.83  V @ 1. m]"	"Frequency / Hz"	"Sound Pressure Level / dB (re 20 µPa/V)  [2.83  V @ 1. m]"	"Frequency / Hz"	"Sound Pressure Level / dB (re 20 µPa/V)  [2.83  V @ 1. m]"	"Frequency / Hz"	"Sound Pressure Level / dB (re 20 µPa/V)  [2.83  V @ 1. m]"	"Frequency / Hz"	"Sound Pressure Level / dB (re 20 µPa/V)  [2.83  V @ 1. m]"	"Frequency / Hz"	"Sound Pressure Level / dB (re 20 µPa/V)  [2.83  V @ 1. m]"	"Frequency / Hz"	"Sound Pressure Level / dB (re 20 µPa/V)  [2.83  V @ 1. m]"	"Frequency / Hz"	"Sound Pressure Level / dB (re 20 µPa/V)  [2.83  V @ 1. m]"	"Frequency / Hz"	"Sound Pressure Level / dB (re 20 µPa/V)  [2.83  V @ 1. m]"	"Frequency / Hz"	"Sound Pressure Level / dB (re 20 µPa/V)  [2.83  V @ 1. m]"	"Frequency / Hz"	"Sound Pressure Level / dB (re 20 µPa/V)  [2.83  V @ 1. m]"	"Frequency / Hz"	"Sound Pressure Level / dB (re 20 µPa/V)  [2.83  V @ 1. m]"	"Frequency / Hz"	"Sound Pressure Level / dB (re 20 µPa/V)  [2.83  V @ 1. m]"	"Frequency / Hz"	"Sound Pressure Level / dB (re 20 µPa/V)  [2.83  V @ 1. m]"	"Frequency / Hz"	"Sound Pressure Level / dB (re 20 µPa/V)  [2.83  V @ 1. m]"	"Frequency / Hz"	"Sound Pressure Level / dB (re 20 µPa/V)  [2.83  V @ 1. m]"
20.5078	50.9977	20.5078	51.2921	20.5078	50.7441	20.5078	51.6063	20.5078	50.5503	20.5078	51.9211	20.5078	50.4302	20.5078	52.2221	20.5078	50.3908	20.5078	52.5015	20.5078	50.4326	20.5078	52.7574	20.5078	50.5503	20.5078	52.9931	20.5078	50.7347	20.5078	53.2143	20.5078	50.9743	20.5078	53.4267	20.5078	51.2564	20.5078	53.6332	20.5078	51.5687	20.5078	53.8316	20.5078	51.9	20.5078	54.0137	20.5078	52.2405	20.5078	54.166	20.5078	52.5822	20.5078	54.2724	20.5078	52.9177	20.5078	54.3182	20.5078	53.2398	20.5078	54.2938	20.5078	53.5402	20.5078	54.1965	20.5078	53.8081	20.5078	54.0312
21.9727	42.7313	21.9727	42.1222	21.9727	43.2393	21.9727	41.4276	21.9727	43.6294	21.9727	40.653	21.9727	43.8887	21.9727	39.7854	21.9727	44.0109	21.9727	38.7896	21.9727	43.9959	21.9727	37.616	21.9727	43.8493	21.9727	36.2342	21.9727	43.5813	21.9727	34.7367	21.9727	43.2072	21.9727	33.5839	21.9727	42.7488	21.9727	33.6216	21.9727	42.237	21.9727	34.9738	21.9727	41.7155	21.9727	36.7814	21.9727	41.2423	21.9727	38.4168	21.9727	40.8838	21.9727	39.683	21.9727	40.6971	21.9727	40.5584	21.9727	40.7011	21.9727	41.0747	21.9727	40.8577	21.9727	41.2844	21.9727	41.0794	21.9727	41.2566
23.4375	51.7417	23.4375	51.5858	23.4375	51.8806	23.4375	51.4248	23.4375	51.9935	23.4375	51.2722	23.4375	52.0752	23.4375	51.1416	23.4375	52.1241	23.4375	51.0453	23.4375	52.1418	23.4375	50.9926	23.4375	52.1324	23.4375	50.9892	23.4375	52.1016	23.4375	51.0356	23.4375	52.0563	23.4375	51.1277	23.4375	52.0032	23.4375	51.2564	23.4375	51.9494	23.4375	51.4086	23.4375	51.9015	23.4375	51.5686	23.4375	51.8654	23.4375	51.7199	23.4375	51.8463	23.4375	51.8475	23.4375	51.847	23.4375	51.9401	23.4375	51.8677	23.4375	51.9921	23.4375	51.9042	23.4375	52.0048	23.4375	51.9478	23.4375	51.9859
24.9023	53.8055	24.9023	53.7431	24.9023	53.8617	24.9023	53.6802	24.9023	53.9071	24.9023	53.6237	24.9023	53.9391	24.9023	53.5801	24.9023	53.9575	24.9023	53.5554	24.9023	53.9633	24.9023	53.5539	24.9023	53.9596	24.9023	53.5779	24.9023	53.9499	24.9023	53.6276	24.9023	53.9385	24.9023	53.701	24.9023	53.9296	24.9023	53.7932	24.9023	53.927	24.9023	53.8975	24.9023	53.9341	24.9023	54.005	24.9023	53.9532	24.9023	54.1059	24.9023	53.9856	24.9023	54.1902	24.9023	54.0308	24.9023	54.25	24.9023	54.0862	24.9023	54.2802	24.9023	54.1468	24.9023	54.2799	24.9023	54.2053	24.9023	54.2526
26.3672	55.2146	26.3672	55.1463	26.3672	55.2748	26.3672	55.075	26.3672	55.3232	26.3672	55.007	26.3672	55.3577	26.3672	54.9484	26.3672	55.3778	26.3672	54.9051	26.3672	55.3847	26.3672	54.8815	26.3672	55.3806	26.3672	54.8804	26.3672	55.3683	26.3672	54.9025	26.3672	55.3513	26.3672	54.9463	26.3672	55.3328	26.3672	55.0083	26.3672	55.3162	26.3672	55.0831	26.3672	55.3043	26.3672	55.1639	26.3672	55.2994	26.3672	55.2427	26.3672	55.303	26.3672	55.3121	26.3672	55.3156	26.3672	55.3654	26.3672	55.336	26.3672	55.3986	26.3672	55.3613	26.3672	55.4111	26.3672	55.3866	26.3672	55.4053
27.832	56.3854	27.832	56.3512	27.832	56.4195	27.832	56.3207	27.832	56.4504	27.832	56.2974	27.832	56.4759	27.832	56.2845	27.832	56.4947	27.832	56.2846	27.832	56.507	27.832	56.2995	27.832	56.5137	27.832	56.3296	27.832	56.5167	27.832	56.3747	27.832	56.5184	27.832	56.433	27.832	56.5214	27.832	56.5016	27.832	56.5283	27.832	56.5759	27.832	56.5414	27.832	56.6505	27.832	56.5623	27.832	56.719	27.832	56.592	27.832	56.7752	27.832	56.6301	27.832	56.8136	27.832	56.6747	27.832	56.8312	27.832	56.7223	27.832	56.8275	27.832	56.7676	27.832	56.8047
29.2969	58.3251	29.2969	58.3156	29.2969	58.3265	29.2969	58.3	29.2969	58.3183	29.2969	58.2807	29.2969	58.2998	29.2969	58.2601	29.2969	58.2711	29.2969	58.2401	29.2969	58.2332	29.2969	58.2225	29.2969	58.188	29.2969	58.2083	29.2969	58.1379	29.2969	58.1979	29.2969	58.0857	29.2969	58.1909	29.2969	58.0344	29.2969	58.1861	29.2969	57.9871	29.2969	58.1817	29.2969	57.9468	29.2969	58.1752	29.2969	57.9163	29.2969	58.1639	29.2969	57.8978	29.2969	58.1454	29.2969	57.893	29.2969	58.1186	29.2969	57.9023	29.2969	58.0836	29.2969	57.925	29.2969	58.0426	29.2969	57.9586	29.2969	57.9994
30.7617	60.2946	30.7617	60.2714	30.7617	60.3058	30.7617	60.2379	30.7617	60.3041	30.7617	60.1964	30.7617	60.2894	30.7617	60.1495	30.7617	60.2623	30.7617	60.0999	30.7617	60.2241	30.7617	60.05	30.7617	60.1766	30.7617	60.0019	30.7617	60.122	30.7617	59.957	30.7617	60.0628	30.7617	59.9162	30.7617	60.0016	30.7617	59.8799	30.7617	59.9409	30.7617	59.848	30.7617	59.8833	30.7617	59.82	30.7617	59.8312	30.7617	59.7955	30.7617	59.7867	30.7617	59.7735	30.7617	59.7514	30.7617	59.7537	30.7617	59.7264	30.7617	59.7361	30.7617	59.712	30.7617	59.7215	30.7617	59.7075	30.7617	59.7113
32.2266	61.1842	32.2266	61.1662	32.2266	61.1939	32.2266	61.1412	32.2266	61.1948	32.2266	61.1106	32.2266	61.1868	32.2266	61.0768	32.2266	61.1705	32.2266	61.0419	32.2266	61.1466	32.2266	61.0082	32.2266	61.1165	32.2266	60.9779	32.2266	61.0818	32.2266	60.9524	32.2266	61.0443	32.2266	60.9327	32.2266	61.0059	32.2266	60.919	32.2266	60.9687	32.2266	60.9108	32.2266	60.9346	32.2266	60.9069	32.2266	60.9056	32.2266	60.9055	32.2266	60.8832	32.2266	60.9044	32.2266	60.8685	32.2266	60.9018	32.2266	60.8618	32.2266	60.8964	32.2266	60.8625	32.2266	60.8881	32.2266	60.8687	32.2266	60.8782
33.6914	62.2482	33.6914	62.2333	33.6914	62.2569	33.6914	62.2131	33.6914	62.2584	33.6914	62.1893	33.6914	62.2528	33.6914	62.1633	33.6914	62.2401	33.6914	62.137	33.6914	62.2212	33.6914	62.1117	33.6914	62.1971	33.6914	62.0889	33.6914	62.1693	33.6914	62.0694	33.6914	62.1393	33.6914	62.0538	33.6914	62.109	33.6914	62.0423	33.6914	62.0801	33.6914	62.0348	33.6914	62.0541	33.6914	62.0305	33.6914	62.0325	33.6914	62.0284	33.6914	62.0162	33.6914	62.0272	33.6914	62.0059	33.6914	62.0256	33.6914	62.0013	33.6914	62.0226	33.6914	62.0018	33.6914	62.0178	33.6914	62.0059	33.6914	62.0118
35.1562	63.3582	35.1562	63.3408	35.1562	63.3687	35.1562	63.3176	35.1562	63.3718	35.1562	63.2898	35.1562	63.3673	35.1562	63.259	35.1562	63.3556	35.1562	63.227	35.1562	63.3375	35.1562	63.1951	35.1562	63.3139	35.1562	63.165	35.1562	63.2862	35.1562	63.1378	35.1562	63.256	35.1562	63.1145	35.1562	63.2249	35.1562	63.0957	35.1562	63.1944	35.1562	63.0817	35.1562	63.166	35.1562	63.0723	35.1562	63.1408	35.1562	63.0671	35.1562	63.1197	35.1562	63.0653	35.1562	63.1029	35.1562	63.0656	35.1562	63.0906	35.1562	63.0673	35.1562	63.082	35.1562	63.0696	35.1562	63.0762	35.1562	63.0724
36.6211	64.8385	36.6211	64.8395	36.6211	64.8267	36.6211	64.8298	36.6211	64.8047	36.6211	64.8096	36.6211	64.7732	36.6211	64.7797	36.6211	64.7334	36.6211	64.7413	36.6211	64.6864	36.6211	64.6958	36.6211	64.634	36.6211	64.6451	36.6211	64.5778	36.6211	64.5907	36.6211	64.5197	36.6211	64.5347	36.6211	64.4617	36.6211	64.4789	36.6211	64.4057	36.6211	64.425	36.6211	64.3537	36.6211	64.3747	36.6211	64.3072	36.6211	64.3291	36.6211	64.2678	36.6211	64.2893	36.6211	64.2364	36.6211	64.256	36.6211	64.2137	36.6211	64.2295	36.6211	64.1999	36.6211	64.2102	36.6211	64.195	36.6211	64.1986
38.0859	65.7918	38.0859	65.7969	38.0859	65.7739	38.0859	65.7887	38.0859	65.7439	38.0859	65.7674	38.0859	65.7032	38.0859	65.7336	38.0859	65.653	38.0859	65.6883	38.0859	65.595	38.0859	65.6331	38.0859	65.5309	38.0859	65.5701	38.0859	65.4627	38.0859	65.5014	38.0859	65.3921	38.0859	65.4296	38.0859	65.3212	38.0859	65.357	38.0859	65.252	38.0859	65.2858	38.0859	65.1865	38.0859	65.2182	38.0859	65.1267	38.0859	65.156	38.0859	65.0744	38.0859	65.1007	38.0859	65.0313	38.0859	65.0536	38.0859	64.9988	38.0859	65.016	38.0859	64.978	38.0859	64.9889	38.0859	64.9694	38.0859	64.9731
39.5508	66.5956	39.5508	66.5967	39.5508	66.5794	39.5508	66.5825	39.5508	66.5489	39.5508	66.5533	39.5508	66.5052	39.5508	66.5101	39.5508	66.45	39.5508	66.4543	39.5508	66.3853	39.5508	66.3881	39.5508	66.3132	39.5508	66.3138	39.5508	66.2362	39.5508	66.2343	39.5508	66.1567	39.5508	66.1522	39.5508	66.0771	39.5508	66.0704	39.5508	66	39.5508	65.9915	39.5508	65.9274	39.5508	65.9177	39.5508	65.8615	39.5508	65.8513	39.5508	65.8037	39.5508	65.7939	39.5508	65.7555	39.5508	65.7468	39.5508	65.7181	39.5508	65.7112	39.5508	65.6921	39.5508	65.6877	39.5508	65.6781	39.5508	65.6766
41.0156	66.8822	41.0156	66.8715	41.0156	66.8734	41.0156	66.8419	41.0156	66.8451	41.0156	66.794	41.0156	66.7975	41.0156	66.7286	41.0156	66.7316	41.0156	66.6469	41.0156	66.6486	41.0156	66.5501	41.0156	66.5505	41.0156	66.44	41.0156	66.4396	41.0156	66.3187	41.0156	66.3187	41.0156	66.1889	41.0156	66.1908	41.0156	66.054	41.0156	66.0593	41.0156	65.9179	41.0156	65.9277	41.0156	65.785	41.0156	65.8	41.0156	65.6607	41.0156	65.6802	41.0156	65.5504	41.0156	65.5723	41.0156	65.4596	41.0156	65.4809	41.0156	65.3928	41.0156	65.4099	41.0156	65.3537	41.0156	65.3632	41.0156	65.3439
42.4805	67.9928	42.4805	67.9926	42.4805	67.9805	42.4805	67.98	42.4805	67.9558	42.4805	67.9553	42.4805	67.9193	42.4805	67.9193	42.4805	67.8718	42.4805	67.8725	42.4805	67.8145	42.4805	67.8159	42.4805	67.7487	42.4805	67.7506	42.4805	67.6761	42.4805	67.678	42.4805	67.5985	42.4805	67.5993	42.4805	67.5175	42.4805	67.5162	42.4805	67.4352	42.4805	67.4306	42.4805	67.3535	42.4805	67.345	42.4805	67.2747	42.4805	67.262	42.4805	67.2012	42.4805	67.1853	42.4805	67.1358	42.4805	67.1187	42.4805	67.0815	42.4805	67.066	42.4805	67.0414	42.4805	67.0305	42.4805	67.0184	42.4805	67.0145
43.9453	68.3364	43.9453	68.3267	43.9453	68.3409	43.9453	68.3126	43.9453	68.3398	43.9453	68.2946	43.9453	68.3325	43.9453	68.2731	43.9453	68.3186	43.9453	68.2486	43.9453	68.2982	43.9453	68.2215	43.9453	68.2717	43.9453	68.1921	43.9453	68.2395	43.9453	68.161	43.9453	68.2028	43.9453	68.1285	43.9453	68.1627	43.9453	68.0954	43.9453	68.1207	43.9453	68.062	43.9453	68.0783	43.9453	68.0293	43.9453	68.0372	43.9453	67.9979	43.9453	67.9991	43.9453	67.969	43.9453	67.9657	43.9453	67.9439	43.9453	67.9384	43.9453	67.9239	43.9453	67.9187	43.9453	67.9104	43.9453	67.9073	43.9453	67.9046
45.4102	69.2408	45.4102	69.2408	45.4102	69.2328	45.4102	69.2324	45.4102	69.2172	45.4102	69.2156	45.4102	69.1942	45.4102	69.1902	45.4102	69.1642	45.4102	69.1565	45.4102	69.1276	45.4102	69.1152	45.4102	69.0849	45.4102	69.067	45.4102	69.0369	45.4102	69.0131	45.4102	68.9848	45.4102	68.9552	45.4102	68.9298	45.4102	68.8951	45.4102	68.8737	45.4102	68.835	45.4102	68.8182	45.4102	68.7771	45.4102	68.765	45.4102	68.7237	45.4102	68.7159	45.4102	68.677	45.4102	68.6727	45.4102	68.6388	45.4102	68.637	45.4102	68.6106	45.4102	68.6102	45.4102	68.5934	45.4102	68.5935	45.4102	68.5877
46.875	70.152	46.875	70.1632	46.875	70.1314	46.875	70.1641	46.875	70.1023	46.875	70.1541	46.875	70.0663	46.875	70.1333	46.875	70.0246	46.875	70.1019	46.875	69.9786	46.875	70.0606	46.875	69.9296	46.875	70.0104	46.875	69.8789	46.875	69.9528	46.875	69.8277	46.875	69.8897	46.875	69.7769	46.875	69.8236	46.875	69.7278	46.875	69.7573	46.875	69.6814	46.875	69.694	46.875	69.6384	46.875	69.6364	46.875	69.5999	46.875	69.5874	46.875	69.5664	46.875	69.5486	46.875	69.5388	46.875	69.5212	46.875	69.5179	46.875	69.5052	46.875	69.5046	46.875	69.5
48.3398	70.7103	48.3398	70.7088	48.3398	70.6989	48.3398	70.6943	48.3398	70.675	48.3398	70.6672	48.3398	70.6396	48.3398	70.6279	48.3398	70.5939	48.3398	70.5771	48.3398	70.5396	48.3398	70.5154	48.3398	70.4784	48.3398	70.4439	48.3398	70.4121	48.3398	70.3639	48.3398	70.3426	48.3398	70.2774	48.3398	70.2718	48.3398	70.1874	48.3398	70.2013	48.3398	70.0977	48.3398	70.1327	48.3398	70.013	48.3398	70.0674	48.3398	69.9379	48.3398	70.0065	48.3398	69.8768	48.3398	69.951	48.3398	69.8326	48.3398	69.9019	48.3398	69.8066	48.3398	69.8603	48.3398	69.7984	48.3398	69.8277	48.3398	69.8063
51.2695	71.6189	51.2695	71.6177	51.2695	71.6116	51.2695	71.6084	51.2695	71.5956	51.2695	71.5915	51.2695	71.5706	51.2695	71.5671	51.2695	71.537	51.2695	71.5355	51.2695	71.4952	51.2695	71.4972	51.2695	71.446	51.2695	71.4525	51.2695	71.3906	51.2695	71.4024	51.2695	71.3304	51.2695	71.3478	51.2695	71.2671	51.2695	71.2901	51.2695	71.2026	51.2695	71.2306	51.2695	71.1391	51.2695	71.1709	51.2695	71.0791	51.2695	71.1126	51.2695	71.0249	51.2695	71.0579	51.2695	70.9792	51.2695	71.0089	51.2695	70.9442	51.2695	70.9678	51.2695	70.9217	51.2695	70.937	51.2695	70.913	51.2695	70.9183
52.7344	71.8691	52.7344	71.8578	52.7344	71.8801	52.7344	71.8469	52.7344	71.8903	52.7344	71.8372	52.7344	71.8988	52.7344	71.8293	52.7344	71.9055	52.7344	71.8236	52.7344	71.9103	52.7344	71.8209	52.7344	71.9135	52.7344	71.8216	52.7344	71.9153	52.7344	71.8259	52.7344	71.9165	52.7344	71.8339	52.7344	71.9177	52.7344	71.8449	52.7344	71.9192	52.7344	71.8581	52.7344	71.9214	52.7344	71.8723	52.7344	71.9242	52.7344	71.8862	52.7344	71.9274	52.7344	71.899	52.7344	71.9304	52.7344	71.9101	52.7344	71.9328	52.7344	71.9192	52.7344	71.934	52.7344	71.9261	52.7344	71.9334	52.7344	71.9308
54.1992	72.599	54.1992	72.5955	54.1992	72.594	54.1992	72.5835	54.1992	72.581	54.1992	72.5639	54.1992	72.5606	54.1992	72.5379	54.1992	72.5343	54.1992	72.5076	54.1992	72.5035	54.1992	72.4753	54.1992	72.4705	54.1992	72.444	54.1992	72.4376	54.1992	72.4163	54.1992	72.4073	54.1992	72.3942	54.1992	72.382	54.1992	72.3793	54.1992	72.3636	54.1992	72.3718	54.1992	72.3532	54.1992	72.3712	54.1992	72.3509	54.1992	72.3761	54.1992	72.3558	54.1992	72.3845	54.1992	72.366	54.1992	72.394	54.1992	72.3788	54.1992	72.4022	54.1992	72.3915	54.1992	72.407	54.1992	72.4015	54.1992	72.4069
55.6641	73.458	55.6641	73.4741	55.6641	73.419	55.6641	73.4655	55.6641	73.3599	55.6641	73.4316	55.6641	73.2836	55.6641	73.3732	55.6641	73.1934	55.6641	73.2926	55.6641	73.0927	55.6641	73.1935	55.6641	72.9848	55.6641	73.0808	55.6641	72.8733	55.6641	72.9598	55.6641	72.7616	55.6641	72.836	55.6641	72.6532	55.6641	72.7144	55.6641	72.5512	55.6641	72.5994	55.6641	72.4584	55.6641	72.4945	55.6641	72.3768	55.6641	72.4022	55.6641	72.308	55.6641	72.3243	55.6641	72.2527	55.6641	72.262	55.6641	72.2112	55.6641	72.2157	55.6641	72.1835	55.6641	72.1852	55.6641	72.1697	55.6641	72.1701
58.5938	73.9841	58.5938	73.9648	58.5938	73.9916	58.5938	73.9351	58.5938	73.9861	58.5938	73.8967	58.5938	73.9672	58.5938	73.8512	58.5938	73.9354	58.5938	73.7999	58.5938	73.8919	58.5938	73.7442	58.5938	73.8388	58.5938	73.6854	58.5938	73.7785	58.5938	73.6252	58.5938	73.7139	58.5938	73.5652	58.5938	73.6478	58.5938	73.5072	58.5938	73.5828	58.5938	73.4528	58.5938	73.5212	58.5938	73.4035	58.5938	73.4645	58.5938	73.3604	58.5938	73.414	58.5938	73.3247	58.5938	73.3703	58.5938	73.2973	58.5938	73.3339	58.5938	73.2793	58.5938	73.3051	58.5938	73.2712	58.5938	73.2846	58.5938	73.273
60.0586	74.2993	60.0586	74.2791	60.0586	74.3056	60.0586	74.2464	60.0586	74.2968	60.0586	74.2034	60.0586	74.273	60.0586	74.1522	60.0586	74.2351	60.0586	74.095	60.0586	74.1849	60.0586	74.0343	60.0586	74.1251	60.0586	73.9724	60.0586	74.0591	60.0586	73.9118	60.0586	73.9901	60.0586	73.8548	60.0586	73.9218	60.0586	73.8036	60.0586	73.8573	60.0586	73.7594	60.0586	73.7991	60.0586	73.7228	60.0586	73.749	60.0586	73.6936	60.0586	73.7082	60.0586	73.6709	60.0586	73.6767	60.0586	73.6538	60.0586	73.6541	60.0586	73.6415	60.0586	73.6396	60.0586	73.6336	60.0586	73.632	60.0586	73.6303
62.9883	75.1942	62.9883	75.216	62.9883	75.1513	62.9883	75.2149	62.9883	75.0892	62.9883	75.19	62.9883	75.0105	62.9883	75.1413	62.9883	74.9179	62.9883	75.0695	62.9883	74.8145	62.9883	74.9769	62.9883	74.7033	62.9883	74.8665	62.9883	74.5877	62.9883	74.7427	62.9883	74.4711	62.9883	74.6108	62.9883	74.3571	62.9883	74.4766	62.9883	74.2489	62.9883	74.3465	62.9883	74.1499	62.9883	74.2259	62.9883	74.0626	62.9883	74.1196	62.9883	73.9891	62.9883	74.0306	62.9883	73.9309	62.9883	73.9602	62.9883	73.8884	62.9883	73.908	62.9883	73.8617	62.9883	73.873	62.9883	73.8503	62.9883	73.854
64.4531	75.3193	64.4531	75.3335	64.4531	75.2858	64.4531	75.3269	64.4531	75.2349	64.4531	75.2988	64.4531	75.169	64.4531	75.2495	64.4531	75.0905	64.4531	75.1803	64.4531	75.002	64.4531	75.0933	64.4531	74.9063	64.4531	74.9915	64.4531	74.8059	64.4531	74.8787	64.4531	74.7037	64.4531	74.7592	64.4531	74.6023	64.4531	74.6378	64.4531	74.5045	64.4531	74.5194	64.4531	74.4126	64.4531	74.409	64.4531	74.3288	64.4531	74.3108	64.4531	74.2551	64.4531	74.2283	64.4531	74.1928	64.4531	74.1635	64.4531	74.1432	64.4531	74.1174	64.4531	74.1072	64.4531	74.0896	64.4531	74.0856	64.4531	74.0794
67.3828	75.5861	67.3828	75.5865	67.3828	75.5696	67.3828	75.5705	67.3828	75.538	67.3828	75.5381	67.3828	75.4928	67.3828	75.4902	67.3828	75.4355	67.3828	75.4283	67.3828	75.368	67.3828	75.3547	67.3828	75.2926	67.3828	75.272	67.3828	75.2115	67.3828	75.1833	67.3828	75.1272	67.3828	75.0916	67.3828	75.0423	67.3828	75.0003	67.3828	74.9594	67.3828	74.9126	67.3828	74.881	67.3828	74.8317	67.3828	74.809	67.3828	74.7602	67.3828	74.7456	67.3828	74.7003	67.3828	74.692	67.3828	74.6532	67.3828	74.6493	67.3828	74.6196	67.3828	74.6183	67.3828	74.5996	67.3828	74.5994	67.3828	74.593
