"SPL Horizontal"
"On-Axis"		"10°"		"-10°"		"20°"		"-20°"		"30°"		"-30°"		"40°"		"-40°"		"50°"		"-50°"		"60°"		"-60°"		"70°"		"-70°"		"80°"		"-80°"		"90°"		"-90°"		"100°"		"-100°"		"110°"		"-110°"		"120°"		"-120°"		"130°"		"-130°"		"140°"		"-140°"		"150°"		"-150°"		"160°"		"-160°"		"170°"		"-170°"		"180°"
"Frequency / Hz"	"Sound Pressure Level / dB (re 20 µPa/V)  [2.83  V @ 1. m]"	"Frequency / Hz"	"Sound Pressure Level / dB (re 20 µPa/V)  [2.83  V @ 1. m]"	"Frequency / Hz"	"Sound Pressure Level / dB (re 20 µPa/V)  [2.83  V @ 1. m]"	"Frequency / Hz"	"Sound Pressure Level / dB (re 20 µPa/V)  [2.83  V @ 1. m]"	"Frequency / Hz"	"Sound Pressure Level / dB (re 20 µPa/V)  [2.83  V @ 1. m]"	"Frequency / Hz"	"Sound Pressure Level / dB (re 20 µPa/V)  [2.83  V @ 1. m]"	"Frequency / Hz"	"Sound Pressure Level / dB (re 20 µPa/V)  [2.83  V @ 1. m]"	"Frequency / Hz"	"Sound Pressure Level / dB (re 20 µPa/V)  [2.83  V @ 1. m]"	"Frequency / Hz"	"Sound Pressure Level / dB (re 20 µPa/V)  [2.83  V @ 1. m]"	"Frequency / Hz"	"Sound Pressure Level / dB (re 20 µPa/V)  [2.83  V @ 1. m]"	"Frequency / Hz"	"Sound Pressure Level / dB (re 20 µPa/V)  [2.83  V @ 1. m]"	"Frequency / Hz"	"Sound Pressure Level / dB (re 20 µPa/V)  [2.83  V @ 1. m]"	"Frequency / Hz"	"Sound Pressure Level / dB (re 20 µPa/V)  [2.83  V @ 1. m]"	"Frequency / Hz"	"Sound Pressure Level / dB (re 20 µPa/V)  [2.83  V @ 1. m]"	"Frequency / Hz"	"Sound Pressure Level / dB (re 20 µPa/V)  [2.83  V @ 1. m]"	"Frequency / Hz"	"Sound Pressure Level / dB (re 20 µPa/V)  [2.83  V @ 1. m]"	"Frequency / Hz"	"Sound Pressure Level / dB (re 20 µPa/V)  [2.83  V @ 1. m]"	"Frequency / Hz"	"Sound Pressure Level / dB (re 20 µPa/V)  [2.83  V @ 1. m]"	"Frequency / Hz"	"Sound Pressure Level / dB (re 20 µPa/V)  [2.83  V @ 1. m]"	"Frequency / Hz"	"Sound Pressure Level / dB (re 20 µPa/V)  [2.83  V @ 1. m]"	"Frequency / Hz"	"Sound Pressure Level / dB (re 20 µPa/V)  [2.83  V @ 1. m]"	"Frequency / Hz"	"Sound Pressure Level / dB (re 20 µPa/V)  [2.83  V @ 1. m]"	"Frequency / Hz"	"Sound Pressure Level / dB (re 20 µPa/V)  [2.83  V @ 1. m]"	"Frequency / Hz"	"Sound Pressure Level / dB (re 20 µPa/V)  [2.83  V @ 1. m]"	"Frequency / Hz"	"Sound Pressure Level / dB (re 20 µPa/V)  [2.83  V @ 1. m]"	"Frequency / Hz"	"Sound Pressure Level / dB (re 20 µPa/V)  [2.83  V @ 1. m]"	"Frequency / Hz"	"Sound Pressure Level / dB (re 20 µPa/V)  [2.83  V @ 1. m]"	"Frequency / Hz"	"Sound Pressure Level / dB (re 20 µPa/V)  [2.83  V @ 1. m]"	"Frequency / Hz"	"Sound Pressure Level / dB (re 20 µPa/V)  [2.83  V @ 1. m]"	"Frequency / Hz"	"Sound Pressure Level / dB (re 20 µPa/V)  [2.83  V @ 1. m]"	"Frequency / Hz"	"Sound Pressure Level / dB (re 20 µPa/V)  [2.83  V @ 1. m]"	"Frequency / Hz"	"Sound Pressure Level / dB (re 20 µPa/V)  [2.83  V @ 1. m]"	"Frequency / Hz"	"Sound Pressure Level / dB (re 20 µPa/V)  [2.83  V @ 1. m]"	"Frequency / Hz"	"Sound Pressure Level / dB (re 20 µPa/V)  [2.83  V @ 1. m]"	"Frequency / Hz"	"Sound Pressure Level / dB (re 20 µPa/V)  [2.83  V @ 1. m]"	"Frequency / Hz"	"Sound Pressure Level / dB (re 20 µPa/V)  [2.83  V @ 1. m]"
20.5078	50.9977	20.5078	50.9715	20.5078	51.0818	20.5078	51.0152	20.5078	51.2106	20.5078	51.1359	20.5078	51.3727	20.5078	51.3328	20.5078	51.5607	20.5078	51.5953	20.5078	51.7715	20.5078	51.9037	20.5078	52.0048	20.5078	52.2321	20.5078	52.261	20.5078	52.5537	20.5078	52.537	20.5078	52.8459	20.5078	52.8243	20.5078	53.0943	20.5078	53.1094	20.5078	53.2951	20.5078	53.3765	20.5078	53.4534	20.5078	53.6112	20.5078	53.5807	20.5078	53.8027	20.5078	53.6891	20.5078	53.9448	20.5078	53.788	20.5078	54.0353	20.5078	53.8806	20.5078	54.0759	20.5078	53.9641	20.5078	54.0718	20.5078	54.0312
21.9727	42.7313	21.9727	42.7593	21.9727	42.5721	21.9727	42.642	21.9727	42.2966	21.9727	42.3645	21.9727	41.9215	21.9727	41.911	21.9727	41.4675	21.9727	41.2653	21.9727	40.9629	21.9727	40.4115	21.9727	40.4468	21.9727	39.3369	21.9727	39.9737	21.9727	38.0437	21.9727	39.61	21.9727	36.5889	21.9727	39.4185	21.9727	35.1966	21.9727	39.4307	21.9727	34.4058	21.9727	39.6304	21.9727	34.7704	21.9727	39.9627	21.9727	36.0722	21.9727	40.3601	21.9727	37.6296	21.9727	40.7593	21.9727	39.0186	21.9727	41.1037	21.9727	40.0939	21.9727	41.3385	21.9727	40.8325	21.9727	41.4081	21.9727	41.2566
23.4375	51.7417	23.4375	51.7096	23.4375	51.7581	23.4375	51.6589	23.4375	51.7637	23.4375	51.5891	23.4375	51.7638	23.4375	51.5032	23.4375	51.7638	23.4375	51.4085	23.4375	51.7674	23.4375	51.3161	23.4375	51.7767	23.4375	51.24	23.4375	51.7912	23.4375	51.1949	23.4375	51.8087	23.4375	51.1923	23.4375	51.8256	23.4375	51.2373	23.4375	51.8386	23.4375	51.3269	23.4375	51.8462	23.4375	51.4502	23.4375	51.8506	23.4375	51.5903	23.4375	51.8571	23.4375	51.7282	23.4375	51.8717	23.4375	51.8462	23.4375	51.8979	23.4375	51.9312	23.4375	51.9327	23.4375	51.9772	23.4375	51.9666	23.4375	51.9859
24.9023	53.8055	24.9023	53.7827	24.9023	53.8224	24.9023	53.7532	24.9023	53.8349	24.9023	53.7183	24.9023	53.8455	24.9023	53.6809	24.9023	53.8569	24.9023	53.6458	24.9023	53.8713	24.9023	53.62	24.9023	53.8903	24.9023	53.611	24.9023	53.9144	24.9023	53.6254	24.9023	53.9427	24.9023	53.6668	24.9023	53.9736	24.9023	53.7346	24.9023	54.0047	24.9023	53.8232	24.9023	54.0345	24.9023	53.9235	24.9023	54.063	24.9023	54.0246	24.9023	54.0919	24.9023	54.1155	24.9023	54.1235	24.9023	54.1877	24.9023	54.159	24.9023	54.2352	24.9023	54.1963	24.9023	54.2561	24.9023	54.2301	24.9023	54.2526
26.3672	55.2146	26.3672	55.1862	26.3672	55.2365	26.3672	55.1519	26.3672	55.252	26.3672	55.1137	26.3672	55.2622	26.3672	55.0746	26.3672	55.2683	26.3672	55.0389	26.3672	55.2717	26.3672	55.0119	26.3672	55.2736	26.3672	54.9989	26.3672	55.275	26.3672	55.004	26.3672	55.2766	26.3672	55.0294	26.3672	55.2786	26.3672	55.0738	26.3672	55.2811	26.3672	55.1331	26.3672	55.2845	26.3672	55.2007	26.3672	55.2898	26.3672	55.2685	26.3672	55.2989	26.3672	55.3288	26.3672	55.3137	26.3672	55.3751	26.3672	55.3347	26.3672	55.4034	26.3672	55.3602	26.3672	55.4128	26.3672	55.3857	26.3672	55.4053
27.832	56.3854	27.832	56.3323	27.832	56.4388	27.832	56.2807	27.832	56.4919	27.832	56.2324	27.832	56.5442	27.832	56.1901	27.832	56.5956	27.832	56.157	27.832	56.6455	27.832	56.1368	27.832	56.6932	27.832	56.1328	27.832	56.7379	27.832	56.1473	27.832	56.7782	27.832	56.1812	27.832	56.8129	27.832	56.2337	27.832	56.8404	27.832	56.3019	27.832	56.8599	27.832	56.3817	27.832	56.8713	27.832	56.4675	27.832	56.8755	27.832	56.5535	27.832	56.8739	27.832	56.634	27.832	56.8672	27.832	56.7043	27.832	56.8549	27.832	56.7615	27.832	56.835	27.832	56.8047
29.2969	58.3251	29.2969	58.2924	29.2969	58.3469	29.2969	58.2497	29.2969	58.3581	29.2969	58.1986	29.2969	58.3593	29.2969	58.1421	29.2969	58.352	29.2969	58.0839	29.2969	58.3378	29.2969	58.0284	29.2969	58.3185	29.2969	57.9799	29.2969	58.2956	29.2969	57.942	29.2969	58.2701	29.2969	57.9167	29.2969	58.2425	29.2969	57.9042	29.2969	58.2127	29.2969	57.9029	29.2969	58.1808	29.2969	57.9104	29.2969	58.1474	29.2969	57.9235	29.2969	58.114	29.2969	57.9393	29.2969	58.0826	29.2969	57.9557	29.2969	58.0551	29.2969	57.9712	29.2969	58.0325	29.2969	57.9855	29.2969	58.0144	29.2969	57.9994
30.7617	60.2946	30.7617	60.2726	30.7617	60.3063	30.7617	60.2407	30.7617	60.3078	30.7617	60.1998	30.7617	60.2993	30.7617	60.1511	30.7617	60.2816	30.7617	60.0965	30.7617	60.2556	30.7617	60.0383	30.7617	60.2224	30.7617	59.979	30.7617	60.1831	30.7617	59.9213	30.7617	60.139	30.7617	59.8674	30.7617	60.0908	30.7617	59.819	30.7617	60.0395	30.7617	59.7774	30.7617	59.9863	30.7617	59.7435	30.7617	59.9327	30.7617	59.718	30.7617	59.8808	30.7617	59.7012	30.7617	59.8331	30.7617	59.6928	30.7617	59.7915	30.7617	59.6921	30.7617	59.7573	30.7617	59.6984	30.7617	59.7307	30.7617	59.7113
32.2266	61.1842	32.2266	61.1592	32.2266	61.2012	32.2266	61.1268	32.2266	61.21	32.2266	61.0883	32.2266	61.2104	32.2266	61.045	32.2266	61.2029	32.2266	60.999	32.2266	61.1883	32.2266	60.9528	32.2266	61.1675	32.2266	60.9091	32.2266	61.1417	32.2266	60.8704	32.2266	61.1123	32.2266	60.8392	32.2266	61.0805	32.2266	60.8168	32.2266	61.0478	32.2266	60.8038	32.2266	61.0158	32.2266	60.7999	32.2266	60.9861	32.2266	60.8041	32.2266	60.96	32.2266	60.8147	32.2266	60.9382	32.2266	60.8295	32.2266	60.9204	32.2266	60.8462	32.2266	60.9056	32.2266	60.8629	32.2266	60.8921	32.2266	60.8782
33.6914	62.2482	33.6914	62.2262	33.6914	62.2648	33.6914	62.1993	33.6914	62.2756	33.6914	62.1685	33.6914	62.2806	33.6914	62.1348	33.6914	62.2799	33.6914	62.0997	33.6914	62.2741	33.6914	62.0648	33.6914	62.2639	33.6914	62.0317	33.6914	62.25	33.6914	62.0016	33.6914	62.2332	33.6914	61.9757	33.6914	62.2141	33.6914	61.955	33.6914	62.1933	33.6914	61.9402	33.6914	62.1713	33.6914	61.9321	33.6914	62.1485	33.6914	61.9312	33.6914	62.1255	33.6914	61.9375	33.6914	62.1027	33.6914	61.9502	33.6914	62.0801	33.6914	61.9681	33.6914	62.0575	33.6914	61.9892	33.6914	62.0348	33.6914	62.0118
35.1562	63.3582	35.1562	63.3343	35.1562	63.3756	35.1562	63.3043	35.1562	63.3867	35.1562	63.2689	35.1562	63.3917	35.1562	63.2293	35.1562	63.3911	35.1562	63.1869	35.1562	63.3856	35.1562	63.1437	35.1562	63.3759	35.1562	63.1017	35.1562	63.3628	35.1562	63.063	35.1562	63.347	35.1562	63.0292	35.1562	63.3288	35.1562	63.0018	35.1562	63.3084	35.1562	62.9819	35.1562	63.2859	35.1562	62.9704	35.1562	63.2611	35.1562	62.9679	35.1562	63.234	35.1562	62.9745	35.1562	63.2046	35.1562	62.9896	35.1562	63.1732	35.1562	63.0122	35.1562	63.1401	35.1562	63.0405	35.1562	63.1061	35.1562	63.0724
36.6211	64.8385	36.6211	64.8385	36.6211	64.8281	36.6211	64.828	36.6211	64.8078	36.6211	64.8075	36.6211	64.7784	36.6211	64.7774	36.6211	64.7409	36.6211	64.7389	36.6211	64.6968	36.6211	64.6934	36.6211	64.6477	36.6211	64.6422	36.6211	64.5953	36.6211	64.5869	36.6211	64.5415	36.6211	64.529	36.6211	64.4881	36.6211	64.4701	36.6211	64.4367	36.6211	64.412	36.6211	64.3886	36.6211	64.357	36.6211	64.3448	36.6211	64.3075	36.6211	64.3059	36.6211	64.2657	36.6211	64.2722	36.6211	64.2333	36.6211	64.244	36.6211	64.2114	36.6211	64.2217	36.6211	64.2	36.6211	64.2062	36.6211	64.1986
38.0859	65.7918	38.0859	65.777	38.0859	65.7943	38.0859	65.7505	38.0859	65.7845	38.0859	65.7128	38.0859	65.7626	38.0859	65.6652	38.0859	65.7292	38.0859	65.6092	38.0859	65.685	38.0859	65.5464	38.0859	65.6313	38.0859	65.4788	38.0859	65.5698	38.0859	65.408	38.0859	65.5026	38.0859	65.3359	38.0859	65.4322	38.0859	65.2641	38.0859	65.3613	38.0859	65.1947	38.0859	65.2923	38.0859	65.13	38.0859	65.227	38.0859	65.0728	38.0859	65.1668	38.0859	65.0259	38.0859	65.1124	38.0859	64.9915	38.0859	65.0647	38.0859	64.9711	38.0859	65.0246	38.0859	64.9652	38.0859	64.9935	38.0859	64.9731
39.5508	66.5956	39.5508	66.5905	39.5508	66.5871	39.5508	66.5717	39.5508	66.5651	39.5508	66.5398	39.5508	66.5301	39.5508	66.4953	39.5508	66.483	39.5508	66.4394	39.5508	66.425	39.5508	66.3735	39.5508	66.358	39.5508	66.2992	39.5508	66.2842	39.5508	66.2186	39.5508	66.2064	39.5508	66.1343	39.5508	66.1275	39.5508	66.0487	39.5508	66.0505	39.5508	65.9649	39.5508	65.9778	39.5508	65.8862	39.5508	65.9113	39.5508	65.8162	39.5508	65.8517	39.5508	65.758	39.5508	65.7995	39.5508	65.7142	39.5508	65.755	39.5508	65.6863	39.5508	65.7188	39.5508	65.6741	39.5508	65.6922	39.5508	65.6766
41.0156	66.8822	41.0156	66.8918	41.0156	66.8542	41.0156	66.8827	41.0156	66.8083	41.0156	66.8551	41.0156	66.7449	41.0156	66.8093	41.0156	66.6641	41.0156	66.7463	41.0156	66.5665	41.0156	66.6671	41.0156	66.4525	41.0156	66.5733	41.0156	66.3237	41.0156	66.4665	41.0156	66.183	41.0156	66.3485	41.0156	66.0351	41.0156	66.2215	41.0156	65.8862	41.0156	66.0882	41.0156	65.7431	41.0156	65.9522	41.0156	65.613	41.0156	65.8178	41.0156	65.5018	41.0156	65.69	41.0156	65.4142	41.0156	65.5739	41.0156	65.3533	41.0156	65.4748	41.0156	65.3211	41.0156	65.397	41.0156	65.3181	41.0156	65.3439
42.4805	67.9928	42.4805	67.9836	42.4805	67.9902	42.4805	67.9633	42.4805	67.9755	42.4805	67.9324	42.4805	67.9485	42.4805	67.8919	42.4805	67.9094	42.4805	67.8427	42.4805	67.8584	42.4805	67.7859	42.4805	67.7962	42.4805	67.7226	42.4805	67.7239	42.4805	67.6539	42.4805	67.6428	42.4805	67.581	42.4805	67.5548	42.4805	67.505	42.4805	67.4623	42.4805	67.4272	42.4805	67.3685	42.4805	67.3493	42.4805	67.2771	42.4805	67.2731	42.4805	67.1928	42.4805	67.2008	42.4805	67.1201	42.4805	67.1354	42.4805	67.0635	42.4805	67.0803	42.4805	67.0261	42.4805	67.0388	42.4805	67.0097	42.4805	67.0145
43.9453	68.3364	43.9453	68.3281	43.9453	68.3389	43.9453	68.3144	43.9453	68.3356	43.9453	68.2956	43.9453	68.3265	43.9453	68.2722	43.9453	68.3117	43.9453	68.2448	43.9453	68.2913	43.9453	68.2142	43.9453	68.2657	43.9453	68.1811	43.9453	68.2352	43.9453	68.1464	43.9453	68.2005	43.9453	68.1109	43.9453	68.1625	43.9453	68.0756	43.9453	68.1223	43.9453	68.0414	43.9453	68.0812	43.9453	68.0092	43.9453	68.0409	43.9453	67.9798	43.9453	68.0032	43.9453	67.9541	43.9453	67.9699	43.9453	67.9329	43.9453	67.9425	43.9453	67.917	43.9453	67.9221	43.9453	67.9073	43.9453	67.9094	43.9453	67.9046
45.4102	69.2408	45.4102	69.2421	45.4102	69.2299	45.4102	69.2341	45.4102	69.2095	45.4102	69.2171	45.4102	69.1799	45.4102	69.1919	45.4102	69.1416	45.4102	69.1593	45.4102	69.0956	45.4102	69.1203	45.4102	69.0429	45.4102	69.0759	45.4102	68.9851	45.4102	69.0273	45.4102	68.9242	45.4102	68.9755	45.4102	68.8622	45.4102	68.9217	45.4102	68.8015	45.4102	68.8673	45.4102	68.7444	45.4102	68.8137	45.4102	68.6933	45.4102	68.7622	45.4102	68.6499	45.4102	68.7144	45.4102	68.616	45.4102	68.6716	45.4102	68.5924	45.4102	68.6354	45.4102	68.5799	45.4102	68.607	45.4102	68.5784	45.4102	68.5877
46.875	70.152	46.875	70.1478	46.875	70.1466	46.875	70.134	46.875	70.1315	46.875	70.111	46.875	70.1073	46.875	70.0795	46.875	70.0748	46.875	70.0406	46.875	70.0348	46.875	69.9954	46.875	69.9885	46.875	69.9451	46.875	69.9373	46.875	69.8914	46.875	69.8826	46.875	69.8357	46.875	69.826	46.875	69.7796	46.875	69.7691	46.875	69.7249	46.875	69.7136	46.875	69.673	46.875	69.6612	46.875	69.6257	46.875	69.6137	46.875	69.5842	46.875	69.5728	46.875	69.5499	46.875	69.5401	46.875	69.5239	46.875	69.5166	46.875	69.5071	46.875	69.5031	46.875	69.5
48.3398	70.7103	48.3398	70.7098	48.3398	70.6984	48.3398	70.6972	48.3398	70.6744	48.3398	70.6726	48.3398	70.6388	48.3398	70.6368	48.3398	70.5925	48.3398	70.5907	48.3398	70.5365	48.3398	70.5355	48.3398	70.4723	48.3398	70.4725	48.3398	70.4015	48.3398	70.4034	48.3398	70.3257	48.3398	70.33	48.3398	70.2472	48.3398	70.2541	48.3398	70.1679	48.3398	70.1777	48.3398	70.0902	48.3398	70.1028	48.3398	70.0168	48.3398	70.0312	48.3398	69.9501	48.3398	69.9653	48.3398	69.893	48.3398	69.9073	48.3398	69.8482	48.3398	69.8599	48.3398	69.8178	48.3398	69.8255	48.3398	69.8036	48.3398	69.8063
51.2695	71.6189	51.2695	71.6075	51.2695	71.6208	51.2695	71.5873	51.2695	71.6129	51.2695	71.559	51.2695	71.5951	51.2695	71.5235	51.2695	71.5676	51.2695	71.482	51.2695	71.5308	51.2695	71.4354	51.2695	71.4855	51.2695	71.3848	51.2695	71.4325	51.2695	71.3313	51.2695	71.3733	51.2695	71.2759	51.2695	71.3095	51.2695	71.2197	51.2695	71.2433	51.2695	71.164	51.2695	71.1771	51.2695	71.1101	51.2695	71.1137	51.2695	71.0598	51.2695	71.0558	51.2695	71.0146	51.2695	71.0059	51.2695	70.9763	51.2695	70.9661	51.2695	70.9465	51.2695	70.9379	51.2695	70.9268	51.2695	70.9218	51.2695	70.9183
52.7344	71.8691	52.7344	71.8695	52.7344	71.8681	52.7344	71.8696	52.7344	71.8666	52.7344	71.8698	52.7344	71.8645	52.7344	71.8706	52.7344	71.8624	52.7344	71.8725	52.7344	71.8605	52.7344	71.8756	52.7344	71.8596	52.7344	71.88	52.7344	71.8601	52.7344	71.8856	52.7344	71.8625	52.7344	71.8921	52.7344	71.867	52.7344	71.8993	52.7344	71.8734	52.7344	71.9067	52.7344	71.8814	52.7344	71.914	52.7344	71.8902	52.7344	71.9205	52.7344	71.8993	52.7344	71.9259	52.7344	71.908	52.7344	71.9298	52.7344	71.9158	52.7344	71.932	52.7344	71.9224	52.7344	71.9323	52.7344	71.9274	52.7344	71.9308
54.1992	72.599	54.1992	72.6083	54.1992	72.582	54.1992	72.6095	54.1992	72.5584	54.1992	72.6027	54.1992	72.5296	54.1992	72.5884	54.1992	72.4975	54.1992	72.5678	54.1992	72.4643	54.1992	72.5423	54.1992	72.4323	54.1992	72.5139	54.1992	72.4037	54.1992	72.4847	54.1992	72.3806	54.1992	72.4571	54.1992	72.3645	54.1992	72.4331	54.1992	72.3559	54.1992	72.4143	54.1992	72.3546	54.1992	72.4017	54.1992	72.3595	54.1992	72.3952	54.1992	72.3688	54.1992	72.394	54.1992	72.3801	54.1992	72.3965	54.1992	72.3912	54.1992	72.4009	54.1992	72.4	54.1992	72.4049	54.1992	72.4054	54.1992	72.4069
55.6641	73.458	55.6641	73.48	55.6641	73.4139	55.6641	73.4793	55.6641	73.3493	55.6641	73.456	55.6641	73.2662	55.6641	73.4109	55.6641	73.1673	55.6641	73.3459	55.6641	73.0555	55.6641	73.264	55.6641	72.9345	55.6641	73.1687	55.6641	72.8084	55.6641	73.0644	55.6641	72.6816	55.6641	72.9553	55.6641	72.5585	55.6641	72.8453	55.6641	72.4438	55.6641	72.7375	55.6641	72.3416	55.6641	72.6341	55.6641	72.2555	55.6641	72.5364	55.6641	72.1886	55.6641	72.4452	55.6641	72.1427	55.6641	72.3614	55.6641	72.1186	55.6641	72.2863	55.6641	72.1162	55.6641	72.2217	55.6641	72.1341	55.6641	72.1701
58.5938	73.9841	58.5938	73.9489	58.5938	74.0063	58.5938	73.9017	58.5938	74.0149	58.5938	73.844	58.5938	74.01	58.5938	73.7779	58.5938	73.992	58.5938	73.7055	58.5938	73.9619	58.5938	73.6298	58.5938	73.921	58.5938	73.5534	58.5938	73.8711	58.5938	73.4792	58.5938	73.8144	58.5938	73.4101	58.5938	73.7532	58.5938	73.3486	58.5938	73.6897	58.5938	73.2969	58.5938	73.6261	58.5938	73.2567	58.5938	73.564	58.5938	73.2291	58.5938	73.5049	58.5938	73.2146	58.5938	73.4494	58.5938	73.2129	58.5938	73.398	58.5938	73.2232	58.5938	73.3512	58.5938	73.2438	58.5938	73.3093	58.5938	73.273
60.0586	74.2993	60.0586	74.2939	60.0586	74.2914	60.0586	74.2753	60.0586	74.2705	60.0586	74.2444	60.0586	74.2374	60.0586	74.2023	60.0586	74.1936	60.0586	74.1505	60.0586	74.1411	60.0586	74.0912	60.0586	74.0824	60.0586	74.0265	60.0586	74.0203	60.0586	73.9591	60.0586	73.9577	60.0586	73.8918	60.0586	73.8976	60.0586	73.8275	60.0586	73.8424	60.0586	73.769	60.0586	73.7941	60.0586	73.7188	60.0586	73.7534	60.0586	73.6788	60.0586	73.7204	60.0586	73.6498	60.0586	73.694	60.0586	73.6319	60.0586	73.6728	60.0586	73.6238	60.0586	73.6554	60.0586	73.6239	60.0586	73.6411	60.0586	73.6303
62.9883	75.1942	62.9883	75.1974	62.9883	75.1694	62.9883	75.1789	62.9883	75.1233	62.9883	75.1395	62.9883	75.0573	62.9883	75.0804	62.9883	74.9732	62.9883	75.0038	62.9883	74.8733	62.9883	74.9121	62.9883	74.7607	62.9883	74.8087	62.9883	74.6392	62.9883	74.6972	62.9883	74.5127	62.9883	74.5816	62.9883	74.386	62.9883	74.4661	62.9883	74.2635	62.9883	74.3545	62.9883	74.15	62.9883	74.25	62.9883	74.0497	62.9883	74.1548	62.9883	73.9661	62.9883	74.0703	62.9883	73.9021	62.9883	73.9972	62.9883	73.8592	62.9883	73.9361	62.9883	73.8376	62.9883	73.8879	62.9883	73.8365	62.9883	73.854
64.4531	75.3193	64.4531	75.3196	64.4531	75.2998	64.4531	75.3008	64.4531	75.2615	64.4531	75.2634	64.4531	75.2056	64.4531	75.2085	64.4531	75.1336	64.4531	75.138	64.4531	75.0475	64.4531	75.0539	64.4531	74.9498	64.4531	74.9591	64.4531	74.8434	64.4531	74.8567	64.4531	74.7316	64.4531	74.75	64.4531	74.6181	64.4531	74.6426	64.4531	74.5068	64.4531	74.538	64.4531	74.4015	64.4531	74.4392	64.4531	74.3062	64.4531	74.3489	64.4531	74.224	64.4531	74.269	64.4531	74.1579	64.4531	74.201	64.4531	74.1098	64.4531	74.1458	64.4531	74.0808	64.4531	74.1049	64.4531	74.0709	64.4531	74.0794
67.3828	75.5861	67.3828	75.5794	67.3828	75.5771	67.3828	75.5572	67.3828	75.5528	67.3828	75.5202	67.3828	75.514	67.3828	75.4695	67.3828	75.4619	67.3828	75.4069	67.3828	75.3981	67.3828	75.3343	67.3828	75.3247	67.3828	75.2542	67.3828	75.2439	67.3828	75.1695	67.3828	75.1583	67.3828	75.0829	67.3828	75.0705	67.3828	74.9974	67.3828	74.9833	67.3828	74.9155	67.3828	74.8995	67.3828	74.8397	67.3828	74.8216	67.3828	74.7719	67.3828	74.7522	67.3828	74.7133	67.3828	74.6934	67.3828	74.6651	67.3828	74.647	67.3828	74.6284	67.3828	74.6144	67.3828	74.604	67.3828	74.5964	67.3828	74.593
