"SPL Vertical"
"On-Axis"		"10°"		"-10°"		"20°"		"-20°"		"30°"		"-30°"		"40°"		"-40°"		"50°"		"-50°"		"60°"		"-60°"		"70°"		"-70°"		"80°"		"-80°"		"90°"		"-90°"		"100°"		"-100°"		"110°"		"-110°"		"120°"		"-120°"		"130°"		"-130°"		"140°"		"-140°"		"150°"		"-150°"		"160°"		"-160°"		"170°"		"-170°"		"180°"
"Frequency / Hz"	"Sound Pressure Level / dB (re 20 µPa/V)  [2.83  V @ 1. m]"	"Frequency / Hz"	"Sound Pressure Level / dB (re 20 µPa/V)  [2.83  V @ 1. m]"	"Frequency / Hz"	"Sound Pressure Level / dB (re 20 µPa/V)  [2.83  V @ 1. m]"	"Frequency / Hz"	"Sound Pressure Level / dB (re 20 µPa/V)  [2.83  V @ 1. m]"	"Frequency / Hz"	"Sound Pressure Level / dB (re 20 µPa/V)  [2.83  V @ 1. m]"	"Frequency / Hz"	"Sound Pressure Level / dB (re 20 µPa/V)  [2.83  V @ 1. m]"	"Frequency / Hz"	"Sound Pressure Level / dB (re 20 µPa/V)  [2.83  V @ 1. m]"	"Frequency / Hz"	"Sound Pressure Level / dB (re 20 µPa/V)  [2.83  V @ 1. m]"	"Frequency / Hz"	"Sound Pressure Level / dB (re 20 µPa/V)  [2.83  V @ 1. m]"	"Frequency / Hz"	"Sound Pressure Level / dB (re 20 µPa/V)  [2.83  V @ 1. m]"	"Frequency / Hz"	"Sound Pressure Level / dB (re 20 µPa/V)  [2.83  V @ 1. m]"	"Frequency / Hz"	"Sound Pressure Level / dB (re 20 µPa/V)  [2.83  V @ 1. m]"	"Frequency / Hz"	"Sound Pressure Level / dB (re 20 µPa/V)  [2.83  V @ 1. m]"	"Frequency / Hz"	"Sound Pressure Level / dB (re 20 µPa/V)  [2.83  V @ 1. m]"	"Frequency / Hz"	"Sound Pressure Level / dB (re 20 µPa/V)  [2.83  V @ 1. m]"	"Frequency / Hz"	"Sound Pressure Level / dB (re 20 µPa/V)  [2.83  V @ 1. m]"	"Frequency / Hz"	"Sound Pressure Level / dB (re 20 µPa/V)  [2.83  V @ 1. m]"	"Frequency / Hz"	"Sound Pressure Level / dB (re 20 µPa/V)  [2.83  V @ 1. m]"	"Frequency / Hz"	"Sound Pressure Level / dB (re 20 µPa/V)  [2.83  V @ 1. m]"	"Frequency / Hz"	"Sound Pressure Level / dB (re 20 µPa/V)  [2.83  V @ 1. m]"	"Frequency / Hz"	"Sound Pressure Level / dB (re 20 µPa/V)  [2.83  V @ 1. m]"	"Frequency / Hz"	"Sound Pressure Level / dB (re 20 µPa/V)  [2.83  V @ 1. m]"	"Frequency / Hz"	"Sound Pressure Level / dB (re 20 µPa/V)  [2.83  V @ 1. m]"	"Frequency / Hz"	"Sound Pressure Level / dB (re 20 µPa/V)  [2.83  V @ 1. m]"	"Frequency / Hz"	"Sound Pressure Level / dB (re 20 µPa/V)  [2.83  V @ 1. m]"	"Frequency / Hz"	"Sound Pressure Level / dB (re 20 µPa/V)  [2.83  V @ 1. m]"	"Frequency / Hz"	"Sound Pressure Level / dB (re 20 µPa/V)  [2.83  V @ 1. m]"	"Frequency / Hz"	"Sound Pressure Level / dB (re 20 µPa/V)  [2.83  V @ 1. m]"	"Frequency / Hz"	"Sound Pressure Level / dB (re 20 µPa/V)  [2.83  V @ 1. m]"	"Frequency / Hz"	"Sound Pressure Level / dB (re 20 µPa/V)  [2.83  V @ 1. m]"	"Frequency / Hz"	"Sound Pressure Level / dB (re 20 µPa/V)  [2.83  V @ 1. m]"	"Frequency / Hz"	"Sound Pressure Level / dB (re 20 µPa/V)  [2.83  V @ 1. m]"	"Frequency / Hz"	"Sound Pressure Level / dB (re 20 µPa/V)  [2.83  V @ 1. m]"	"Frequency / Hz"	"Sound Pressure Level / dB (re 20 µPa/V)  [2.83  V @ 1. m]"	"Frequency / Hz"	"Sound Pressure Level / dB (re 20 µPa/V)  [2.83  V @ 1. m]"	"Frequency / Hz"	"Sound Pressure Level / dB (re 20 µPa/V)  [2.83  V @ 1. m]"
20.5078	65.153	20.5078	65.0219	20.5078	65.2666	20.5078	64.8779	20.5078	65.3565	20.5078	64.7244	20.5078	65.4151	20.5078	64.5641	20.5078	65.4342	20.5078	64.3992	20.5078	65.4054	20.5078	64.2319	20.5078	65.3227	20.5078	64.0645	20.5078	65.184	20.5078	63.8996	20.5078	64.9925	20.5078	63.7401	20.5078	64.7581	20.5078	63.5889	20.5078	64.496	20.5078	63.4496	20.5078	64.2249	20.5078	63.3257	20.5078	63.9635	20.5078	63.2209	20.5078	63.7273	20.5078	63.1386	20.5078	63.5257	20.5078	63.0817	20.5078	63.3621	20.5078	63.0526	20.5078	63.2355	20.5078	63.0526	20.5078	63.1432	20.5078	63.0826
21.9727	65.0114	21.9727	64.9197	21.9727	65.0845	21.9727	64.8137	21.9727	65.1332	21.9727	64.6965	21.9727	65.1504	21.9727	64.5704	21.9727	65.1282	21.9727	64.4373	21.9727	65.059	21.9727	64.2989	21.9727	64.9378	21.9727	64.157	21.9727	64.7638	21.9727	64.0137	21.9727	64.5426	21.9727	63.8714	21.9727	64.2865	21.9727	63.7327	21.9727	64.0143	21.9727	63.6004	21.9727	63.7489	21.9727	63.4776	21.9727	63.5126	21.9727	63.367	21.9727	63.3227	21.9727	63.2712	21.9727	63.1865	21.9727	63.1918	21.9727	63.1015	21.9727	63.1295	21.9727	63.0583	21.9727	63.0844	21.9727	63.046	21.9727	63.0561
23.4375	63.5521	23.4375	63.506	23.4375	63.5682	23.4375	63.4333	23.4375	63.5498	23.4375	63.3359	23.4375	63.4915	23.4375	63.2156	23.4375	63.3874	23.4375	63.0738	23.4375	63.2326	23.4375	62.9121	23.4375	63.0253	23.4375	62.7329	23.4375	62.7679	23.4375	62.5391	23.4375	62.4682	23.4375	62.3343	23.4375	62.139	23.4375	62.1233	23.4375	61.7984	23.4375	61.9112	23.4375	61.4687	23.4375	61.7038	23.4375	61.1754	23.4375	61.5066	23.4375	60.9425	23.4375	61.3247	23.4375	60.7856	23.4375	61.1618	23.4375	60.7063	23.4375	61.0199	23.4375	60.6935	23.4375	60.8997	23.4375	60.7303	23.4375	60.802
24.9023	63.9169	24.9023	63.8592	24.9023	63.9642	24.9023	63.7905	24.9023	64.0006	24.9023	63.7098	24.9023	64.0244	24.9023	63.6159	24.9023	64.0328	24.9023	63.5083	24.9023	64.0213	24.9023	63.3869	24.9023	63.9844	24.9023	63.2529	24.9023	63.9153	24.9023	63.108	24.9023	63.8056	24.9023	62.9552	24.9023	63.6473	24.9023	62.7981	24.9023	63.4363	24.9023	62.6411	24.9023	63.177	24.9023	62.489	24.9023	62.8866	24.9023	62.3463	24.9023	62.5943	24.9023	62.2178	24.9023	62.3337	24.9023	62.1073	24.9023	62.132	24.9023	62.0186	24.9023	62.0006	24.9023	61.9559	24.9023	61.9357	24.9023	61.9251
26.3672	66.5585	26.3672	66.3247	26.3672	66.8122	26.3672	66.1117	26.3672	67.0831	26.3672	65.9196	26.3672	67.3654	26.3672	65.7481	26.3672	67.6492	26.3672	65.5965	26.3672	67.9189	26.3672	65.4645	26.3672	68.1532	26.3672	65.3513	26.3672	68.3267	26.3672	65.2561	26.3672	68.4136	26.3672	65.1783	26.3672	68.3924	26.3672	65.1169	26.3672	68.2515	26.3672	65.0715	26.3672	67.9938	26.3672	65.0421	26.3672	67.6379	26.3672	65.0297	26.3672	67.2168	26.3672	65.0371	26.3672	66.7714	26.3672	65.0698	26.3672	66.3428	26.3672	65.1361	26.3672	65.9635	26.3672	65.2471	26.3672	65.6526	26.3672	65.4155
27.832	68.7956	27.832	68.517	27.832	69.0956	27.832	68.2627	27.832	69.412	27.832	68.0341	27.832	69.7365	27.832	67.8316	27.832	70.0565	27.832	67.6553	27.832	70.3549	27.832	67.505	27.832	70.6105	27.832	67.3804	27.832	70.7994	27.832	67.2812	27.832	70.8985	27.832	67.2073	27.832	70.8895	27.832	67.1585	27.832	70.7634	27.832	67.1353	27.832	70.5239	27.832	67.1383	27.832	70.188	27.832	67.1692	27.832	69.7845	27.832	67.2303	27.832	69.3491	27.832	67.3256	27.832	68.9169	27.832	67.4604	27.832	68.5167	27.832	67.6413	27.832	68.1668	27.832	67.8751
29.2969	70.6786	29.2969	70.3664	29.2969	71.0116	29.2969	70.0797	29.2969	71.3582	29.2969	69.8216	29.2969	71.7084	29.2969	69.5939	29.2969	72.0485	29.2969	69.398	29.2969	72.361	29.2969	69.2347	29.2969	72.6251	29.2969	69.1043	29.2969	72.819	29.2969	69.0071	29.2969	72.9222	29.2969	68.9435	29.2969	72.9195	29.2969	68.9135	29.2969	72.8044	29.2969	68.9172	29.2969	72.5814	29.2969	68.955	29.2969	72.2669	29.2969	69.0273	29.2969	71.8863	29.2969	69.1349	29.2969	71.4704	29.2969	69.2795	29.2969	71.0493	29.2969	69.4636	29.2969	70.6478	29.2969	69.6902	29.2969	70.2827	29.2969	69.9627
30.7617	72.6691	30.7617	72.3628	30.7617	72.9964	30.7617	72.0829	30.7617	73.3368	30.7617	71.833	30.7617	73.6797	30.7617	71.6156	30.7617	74.011	30.7617	71.4319	30.7617	74.3134	30.7617	71.2828	30.7617	74.5667	30.7617	71.168	30.7617	74.7501	30.7617	71.0872	30.7617	74.8447	30.7617	71.0396	30.7617	74.8369	30.7617	71.0241	30.7617	74.7219	30.7617	71.0396	30.7617	74.5056	30.7617	71.0852	30.7617	74.2046	30.7617	71.1607	30.7617	73.8439	30.7617	71.2666	30.7617	73.4525	30.7617	71.4046	30.7617	73.0581	30.7617	71.5778	30.7617	72.6831	30.7617	71.7897	30.7617	72.3425	30.7617	72.044
32.2266	74.047	32.2266	73.7334	32.2266	74.3792	32.2266	73.4442	32.2266	74.7215	32.2266	73.1836	32.2266	75.063	32.2266	72.9547	32.2266	75.3895	32.2266	72.7593	32.2266	75.6842	32.2266	72.5987	32.2266	75.9278	32.2266	72.4735	32.2266	76.1008	32.2266	72.3838	32.2266	76.1863	32.2266	72.3294	32.2266	76.1724	32.2266	72.31	32.2266	76.0558	32.2266	72.3253	32.2266	75.8431	32.2266	72.3748	32.2266	75.5505	32.2266	72.4585	32.2266	75.2013	32.2266	72.5768	32.2266	74.8219	32.2266	72.7305	32.2266	74.4371	32.2266	72.9209	32.2266	74.0667	32.2266	73.1496	32.2266	73.7243	32.2266	73.4175
33.6914	75.3266	33.6914	75.0156	33.6914	75.6539	33.6914	74.7274	33.6914	75.9891	33.6914	74.4666	33.6914	76.321	33.6914	74.2363	33.6914	76.6355	33.6914	74.0389	33.6914	76.916	33.6914	73.8758	33.6914	77.144	33.6914	73.7478	33.6914	77.301	33.6914	73.6552	33.6914	77.3712	33.6914	73.5979	33.6914	77.3441	33.6914	73.5757	33.6914	77.2176	33.6914	73.588	33.6914	76.9993	33.6914	73.6343	33.6914	76.7061	33.6914	73.7142	33.6914	76.3611	33.6914	73.828	33.6914	75.9902	33.6914	73.976	33.6914	75.617	33.6914	74.1592	33.6914	75.2597	33.6914	74.3789	33.6914	74.9305	33.6914	74.636
35.1562	76.2896	35.1562	75.951	35.1562	76.6427	35.1562	75.6345	35.1562	77.0006	35.1562	75.3458	35.1562	77.3514	35.1562	75.0896	35.1562	77.6807	35.1562	74.8693	35.1562	77.9716	35.1562	74.6871	35.1562	78.206	35.1562	74.5447	35.1562	78.3657	35.1562	74.4428	35.1562	78.4355	35.1562	74.3815	35.1562	78.4057	35.1562	74.3605	35.1562	78.2747	35.1562	74.3791	35.1562	78.05	35.1562	74.4364	35.1562	77.7482	35.1562	74.5318	35.1562	77.3925	35.1562	74.6646	35.1562	77.0079	35.1562	74.8348	35.1562	76.6178	35.1562	75.0424	35.1562	76.2407	35.1562	75.2875	35.1562	75.8891	35.1562	75.5702
36.6211	77.4247	36.6211	77.1082	36.6211	77.7529	36.6211	76.8106	36.6211	78.0841	36.6211	76.5372	36.6211	78.4069	36.6211	76.2924	36.6211	78.7081	36.6211	76.0794	36.6211	78.9718	36.6211	75.9009	36.6211	79.1812	36.6211	75.7586	36.6211	79.3198	36.6211	75.6536	36.6211	79.3738	36.6211	75.5868	36.6211	79.3347	36.6211	75.5581	36.6211	79.2019	36.6211	75.5676	36.6211	78.9833	36.6211	75.6147	36.6211	78.695	36.6211	75.6988	36.6211	78.3588	36.6211	75.8195	36.6211	77.9981	36.6211	75.9763	36.6211	77.634	36.6211	76.1687	36.6211	77.283	36.6211	76.3966	36.6211	76.956	36.6211	76.6595
38.0859	78.3533	38.0859	78.0411	38.0859	78.6768	38.0859	77.747	38.0859	79.0025	38.0859	77.4767	38.0859	79.3193	38.0859	77.2344	38.0859	79.6139	38.0859	77.0234	38.0859	79.8706	38.0859	76.8463	38.0859	80.073	38.0859	76.7048	38.0859	80.2048	38.0859	76.5999	38.0859	80.2528	38.0859	76.5325	38.0859	80.2092	38.0859	76.5026	38.0859	80.0738	38.0859	76.51	38.0859	79.8549	38.0859	76.5545	38.0859	79.5689	38.0859	76.6355	38.0859	79.2373	38.0859	76.7524	38.0859	78.8827	38.0859	76.9049	38.0859	78.5257	38.0859	77.0925	38.0859	78.182	38.0859	77.3151	38.0859	77.8621	38.0859	77.5721
39.5508	78.8727	39.5508	78.5641	39.5508	79.1931	39.5508	78.2743	39.5508	79.5161	39.5508	78.0089	39.5508	79.8307	39.5508	77.7723	39.5508	80.1233	39.5508	77.5675	39.5508	80.3783	39.5508	77.3969	39.5508	80.5793	39.5508	77.2621	39.5508	80.7104	39.5508	77.1641	39.5508	80.7585	39.5508	77.1032	39.5508	80.7163	39.5508	77.0794	39.5508	80.5838	39.5508	77.0923	39.5508	80.37	39.5508	77.1414	39.5508	80.0911	39.5508	77.2258	39.5508	79.7684	39.5508	77.3447	39.5508	79.4243	39.5508	77.4975	39.5508	79.0783	39.5508	77.6835	39.5508	78.7454	39.5508	77.9023	39.5508	78.4352	39.5508	78.1533
41.0156	79.4212	41.0156	79.1087	41.0156	79.7459	41.0156	78.8158	41.0156	80.0731	41.0156	78.5486	41.0156	80.3912	41.0156	78.3114	41.0156	80.6862	41.0156	78.1076	41.0156	80.9424	41.0156	77.9393	41.0156	81.1431	41.0156	77.8081	41.0156	81.2727	41.0156	77.7144	41.0156	81.3186	41.0156	77.6583	41.0156	81.2738	41.0156	77.6394	41.0156	81.1391	41.0156	77.657	41.0156	80.924	41.0156	77.71	41.0156	80.645	41.0156	77.7974	41.0156	80.3236	41.0156	77.9182	41.0156	79.9817	41.0156	78.0716	41.0156	79.6387	41.0156	78.257	41.0156	79.3089	41.0156	78.4741	41.0156	79.0018	41.0156	78.7227
42.4805	80.6737	42.4805	80.3496	42.4805	81.0091	42.4805	80.0444	42.4805	81.3461	42.4805	79.7642	42.4805	81.673	42.4805	79.5138	42.4805	81.9758	42.4805	79.2969	42.4805	82.2381	42.4805	79.116	42.4805	82.4426	42.4805	78.9731	42.4805	82.5722	42.4805	78.8692	42.4805	82.6134	42.4805	78.8046	42.4805	82.5587	42.4805	78.7793	42.4805	82.4094	42.4805	78.7927	42.4805	82.1765	42.4805	78.844	42.4805	81.8788	42.4805	78.9323	42.4805	81.54	42.4805	79.0564	42.4805	81.1835	42.4805	79.2151	42.4805	80.8289	42.4805	79.4074	42.4805	80.49	42.4805	79.6321	42.4805	80.1751	42.4805	79.8884
43.9453	81.2394	43.9453	80.9167	43.9453	81.5724	43.9453	80.6119	43.9453	81.9063	43.9453	80.3313	43.9453	82.2296	43.9453	80.0796	43.9453	82.5286	43.9453	79.8609	43.9453	82.7874	43.9453	79.678	43.9453	82.9891	43.9453	79.5329	43.9453	83.1173	43.9453	79.4268	43.9453	83.1586	43.9453	79.3603	43.9453	83.1056	43.9453	79.3334	43.9453	82.9593	43.9453	79.3457	43.9453	82.73	43.9453	79.3962	43.9453	82.4359	43.9453	79.4842	43.9453	82.0999	43.9453	79.6084	43.9453	81.745	43.9453	79.7677	43.9453	81.3907	43.9453	79.961	43.9453	81.0509	43.9453	80.1873	43.9453	80.7342	43.9453	80.4455
45.4102	81.7937	45.4102	81.474	45.4102	82.1224	45.4102	81.171	45.4102	82.4505	45.4102	80.891	45.4102	82.7665	45.4102	80.6389	45.4102	83.0565	45.4102	80.4188	45.4102	83.3049	45.4102	80.2337	45.4102	83.4948	45.4102	80.0857	45.4102	83.6101	45.4102	79.9761	45.4102	83.6381	45.4102	79.9057	45.4102	83.5725	45.4102	79.8743	45.4102	83.4154	45.4102	79.8815	45.4102	83.1783	45.4102	79.9266	45.4102	82.8803	45.4102	80.0085	45.4102	82.5446	45.4102	80.1261	45.4102	82.1939	45.4102	80.2783	45.4102	81.8468	45.4102	80.4637	45.4102	81.516	45.4102	80.6814	45.4102	81.2091	45.4102	80.9303
46.875	82.206	46.875	81.8885	46.875	82.5318	46.875	81.5868	46.875	82.8563	46.875	81.3071	46.875	83.168	46.875	81.0543	46.875	83.4531	46.875	80.8324	46.875	83.696	46.875	80.6442	46.875	83.8799	46.875	80.492	46.875	83.989	46.875	80.3772	46.875	84.0106	46.875	80.3005	46.875	83.9387	46.875	80.2621	46.875	83.7758	46.875	80.2619	46.875	83.5336	46.875	80.2995	46.875	83.2314	46.875	80.3742	46.875	82.8924	46.875	80.4851	46.875	82.5393	46.875	80.6316	46.875	82.1905	46.875	80.8125	46.875	81.8588	46.875	81.0269	46.875	81.5518	46.875	81.2738
48.3398	82.6395	48.3398	82.3233	48.3398	82.9634	48.3398	82.0225	48.3398	83.2855	48.3398	81.7433	48.3398	83.5942	48.3398	81.4904	48.3398	83.8758	48.3398	81.2679	48.3398	84.1147	48.3398	81.0787	48.3398	84.2942	48.3398	80.9251	48.3398	84.3987	48.3398	80.8086	48.3398	84.4161	48.3398	80.73	48.3398	84.3406	48.3398	80.6898	48.3398	84.1751	48.3398	80.6878	48.3398	83.9317	48.3398	80.7238	48.3398	83.6299	48.3398	80.7971	48.3398	83.2929	48.3398	80.907	48.3398	82.9428	48.3398	81.0524	48.3398	82.5976	48.3398	81.2323	48.3398	82.2695	48.3398	81.4453	48.3398	81.9658	48.3398	81.6903
51.2695	83.2977	51.2695	82.9824	51.2695	83.6211	51.2695	82.6831	51.2695	83.943	51.2695	82.406	51.2695	84.2519	51.2695	82.1565	51.2695	84.5342	51.2695	81.9387	51.2695	84.7745	51.2695	81.7555	51.2695	84.9568	51.2695	81.6093	51.2695	85.0656	51.2695	81.5014	51.2695	85.0893	51.2695	81.4323	51.2695	85.0222	51.2695	81.402	51.2695	84.8669	51.2695	81.41	51.2695	84.635	51.2695	81.4555	51.2695	84.3453	51.2695	81.5374	51.2695	84.0199	51.2695	81.6545	51.2695	83.6802	51.2695	81.8055	51.2695	83.3435	51.2695	81.9891	51.2695	83.0217	51.2695	82.204	51.2695	82.7222	51.2695	82.4489
52.7344	83.6017	52.7344	83.294	52.7344	83.9175	52.7344	83.0021	52.7344	84.2322	52.7344	82.7319	52.7344	84.5344	52.7344	82.4882	52.7344	84.8107	52.7344	82.2748	52.7344	85.0458	52.7344	82.0946	52.7344	85.2237	52.7344	81.9495	52.7344	85.3294	52.7344	81.841	52.7344	85.3513	52.7344	81.7699	52.7344	85.284	52.7344	81.7364	52.7344	85.1305	52.7344	81.7403	52.7344	84.9025	52.7344	81.7813	52.7344	84.6182	52.7344	81.8586	52.7344	84.2993	52.7344	81.9713	52.7344	83.9663	52.7344	82.1186	52.7344	83.6359	52.7344	82.2991	52.7344	83.3193	52.7344	82.5113	52.7344	83.0238	52.7344	82.7536
54.1992	83.8811	54.1992	83.5729	54.1992	84.1987	54.1992	83.2819	54.1992	84.5157	54.1992	83.0145	54.1992	84.8202	54.1992	82.7755	54.1992	85.0984	54.1992	82.5686	54.1992	85.3345	54.1992	82.3965	54.1992	85.5125	54.1992	82.2609	54.1992	85.6174	54.1992	82.1627	54.1992	85.6383	54.1992	82.1023	54.1992	85.5704	54.1992	82.0797	54.1992	85.4179	54.1992	82.0941	54.1992	85.1934	54.1992	82.1448	54.1992	84.9161	54.1992	82.2306	54.1992	84.6076	54.1992	82.3501	54.1992	84.288	54.1992	82.5016	54.1992	83.9725	54.1992	82.6831	54.1992	83.6708	54.1992	82.8927	54.1992	83.3884	54.1992	83.1284
55.6641	84.1204	55.6641	83.7989	55.6641	84.4507	55.6641	83.4949	55.6641	84.7792	55.6641	83.2151	55.6641	85.0936	55.6641	82.9651	55.6641	85.3795	55.6641	82.749	55.6641	85.6213	55.6641	82.5696	55.6641	85.8025	55.6641	82.4289	55.6641	85.9084	55.6641	82.3277	55.6641	85.9279	55.6641	82.2664	55.6641	85.8568	55.6641	82.2448	55.6641	85.699	55.6641	82.262	55.6641	85.4675	55.6641	82.3169	55.6641	85.1818	55.6641	82.4081	55.6641	84.8642	55.6641	82.5336	55.6641	84.5349	55.6641	82.6917	55.6641	84.2098	55.6641	82.88	55.6641	83.8989	55.6641	83.0967	55.6641	83.6079	55.6641	83.3399
58.5938	84.7324	58.5938	84.4031	58.5938	85.0689	58.5938	84.0903	58.5938	85.4015	58.5938	83.8019	58.5938	85.7178	58.5938	83.5446	58.5938	86.0033	58.5938	83.3235	58.5938	86.2425	58.5938	83.1423	58.5938	86.4193	58.5938	83.0033	58.5938	86.5194	58.5938	82.9074	58.5938	86.5322	58.5938	82.8544	58.5938	86.4538	58.5938	82.8428	58.5938	86.2892	58.5938	82.8708	58.5938	86.0523	58.5938	82.9357	58.5938	85.7634	58.5938	83.0349	58.5938	85.4456	58.5938	83.1655	58.5938	85.1197	58.5938	83.3251	58.5938	84.8009	58.5938	83.5115	58.5938	84.4985	58.5938	83.7229	58.5938	84.2171	58.5938	83.9584
60.0586	84.9799	60.0586	84.657	60.0586	85.3094	60.0586	84.35	60.0586	85.635	60.0586	84.0664	60.0586	85.9443	60.0586	83.8129	60.0586	86.2234	60.0586	83.5945	60.0586	86.4571	60.0586	83.4149	60.0586	86.6299	60.0586	83.2765	60.0586	86.7275	60.0586	83.1803	60.0586	86.7398	60.0586	83.1261	60.0586	86.663	60.0586	83.1128	60.0586	86.5019	60.0586	83.1383	60.0586	86.2698	60.0586	83.2003	60.0586	85.9865	60.0586	83.2961	60.0586	85.6743	60.0586	83.4232	60.0586	85.3532	60.0586	83.5792	60.0586	85.0383	60.0586	83.7623	60.0586	84.739	60.0586	83.9708	60.0586	84.46	60.0586	84.2036
62.9883	85.5373	62.9883	85.2067	62.9883	85.8737	62.9883	84.8913	62.9883	86.2051	62.9883	84.599	62.9883	86.5189	62.9883	84.3364	62.9883	86.8006	62.9883	84.1087	62.9883	87.0345	62.9883	83.9199	62.9883	87.2044	62.9883	83.7727	62.9883	87.2957	62.9883	83.6684	62.9883	87.2979	62.9883	83.6069	62.9883	87.2077	62.9883	83.5872	62.9883	87.0312	62.9883	83.6073	62.9883	86.7836	62.9883	83.6649	62.9883	86.4866	62.9883	83.7573	62.9883	86.1634	62.9883	83.882	62.9883	85.8341	62.9883	84.0368	62.9883	85.513	62.9883	84.2199	62.9883	85.2086	62.9883	84.4298	62.9883	84.9253	62.9883	84.6653
64.4531	85.7172	64.4531	85.3845	64.4531	86.0552	64.4531	85.0666	64.4531	86.3872	64.4531	84.7718	64.4531	86.7005	64.4531	84.5069	64.4531	86.9804	64.4531	84.2773	64.4531	87.2112	64.4531	84.0872	64.4531	87.3767	64.4531	83.9391	64.4531	87.4626	64.4531	83.8343	64.4531	87.4587	64.4531	83.7728	64.4531	87.3625	64.4531	83.7533	64.4531	87.1807	64.4531	83.7738	64.4531	86.9292	64.4531	83.8317	64.4531	86.6302	64.4531	83.9244	64.4531	86.3071	64.4531	84.049	64.4531	85.9799	64.4531	84.2032	64.4531	85.6621	64.4531	84.3852	64.4531	85.3617	64.4531	84.5931	64.4531	85.0824	64.4531	84.8259
67.3828	86.1158	67.3828	85.775	67.3828	86.4598	67.3828	85.4478	67.3828	86.7954	67.3828	85.1432	67.3828	87.1097	67.3828	84.8686	67.3828	87.3879	67.3828	84.6305	67.3828	87.6144	67.3828	84.4334	67.3828	87.7734	67.3828	84.2807	67.3828	87.8509	67.3828	84.1735	67.3828	87.8376	67.3828	84.1119	67.3828	87.7316	67.3828	84.0943	67.3828	87.5407	67.3828	84.1182	67.3828	87.2821	67.3828	84.1805	67.3828	86.9787	67.3828	84.2776	67.3828	86.6543	67.3828	84.4064	67.3828	86.3283	67.3828	84.5639	67.3828	86.0137	67.3828	84.7477	67.3828	85.7172	67.3828	84.9561	67.3828	85.4415	67.3828	85.1876
