"SPL Horizontal"
"On-Axis"		"10°"		"-10°"		"20°"		"-20°"		"30°"		"-30°"		"40°"		"-40°"		"50°"		"-50°"		"60°"		"-60°"		"70°"		"-70°"		"80°"		"-80°"		"90°"		"-90°"		"100°"		"-100°"		"110°"		"-110°"		"120°"		"-120°"		"130°"		"-130°"		"140°"		"-140°"		"150°"		"-150°"		"160°"		"-160°"		"170°"		"-170°"		"180°"
"Frequency / Hz"	"Sound Pressure Level / dB (re 20 µPa/V)  [2.83  V @ 1. m]"	"Frequency / Hz"	"Sound Pressure Level / dB (re 20 µPa/V)  [2.83  V @ 1. m]"	"Frequency / Hz"	"Sound Pressure Level / dB (re 20 µPa/V)  [2.83  V @ 1. m]"	"Frequency / Hz"	"Sound Pressure Level / dB (re 20 µPa/V)  [2.83  V @ 1. m]"	"Frequency / Hz"	"Sound Pressure Level / dB (re 20 µPa/V)  [2.83  V @ 1. m]"	"Frequency / Hz"	"Sound Pressure Level / dB (re 20 µPa/V)  [2.83  V @ 1. m]"	"Frequency / Hz"	"Sound Pressure Level / dB (re 20 µPa/V)  [2.83  V @ 1. m]"	"Frequency / Hz"	"Sound Pressure Level / dB (re 20 µPa/V)  [2.83  V @ 1. m]"	"Frequency / Hz"	"Sound Pressure Level / dB (re 20 µPa/V)  [2.83  V @ 1. m]"	"Frequency / Hz"	"Sound Pressure Level / dB (re 20 µPa/V)  [2.83  V @ 1. m]"	"Frequency / Hz"	"Sound Pressure Level / dB (re 20 µPa/V)  [2.83  V @ 1. m]"	"Frequency / Hz"	"Sound Pressure Level / dB (re 20 µPa/V)  [2.83  V @ 1. m]"	"Frequency / Hz"	"Sound Pressure Level / dB (re 20 µPa/V)  [2.83  V @ 1. m]"	"Frequency / Hz"	"Sound Pressure Level / dB (re 20 µPa/V)  [2.83  V @ 1. m]"	"Frequency / Hz"	"Sound Pressure Level / dB (re 20 µPa/V)  [2.83  V @ 1. m]"	"Frequency / Hz"	"Sound Pressure Level / dB (re 20 µPa/V)  [2.83  V @ 1. m]"	"Frequency / Hz"	"Sound Pressure Level / dB (re 20 µPa/V)  [2.83  V @ 1. m]"	"Frequency / Hz"	"Sound Pressure Level / dB (re 20 µPa/V)  [2.83  V @ 1. m]"	"Frequency / Hz"	"Sound Pressure Level / dB (re 20 µPa/V)  [2.83  V @ 1. m]"	"Frequency / Hz"	"Sound Pressure Level / dB (re 20 µPa/V)  [2.83  V @ 1. m]"	"Frequency / Hz"	"Sound Pressure Level / dB (re 20 µPa/V)  [2.83  V @ 1. m]"	"Frequency / Hz"	"Sound Pressure Level / dB (re 20 µPa/V)  [2.83  V @ 1. m]"	"Frequency / Hz"	"Sound Pressure Level / dB (re 20 µPa/V)  [2.83  V @ 1. m]"	"Frequency / Hz"	"Sound Pressure Level / dB (re 20 µPa/V)  [2.83  V @ 1. m]"	"Frequency / Hz"	"Sound Pressure Level / dB (re 20 µPa/V)  [2.83  V @ 1. m]"	"Frequency / Hz"	"Sound Pressure Level / dB (re 20 µPa/V)  [2.83  V @ 1. m]"	"Frequency / Hz"	"Sound Pressure Level / dB (re 20 µPa/V)  [2.83  V @ 1. m]"	"Frequency / Hz"	"Sound Pressure Level / dB (re 20 µPa/V)  [2.83  V @ 1. m]"	"Frequency / Hz"	"Sound Pressure Level / dB (re 20 µPa/V)  [2.83  V @ 1. m]"	"Frequency / Hz"	"Sound Pressure Level / dB (re 20 µPa/V)  [2.83  V @ 1. m]"	"Frequency / Hz"	"Sound Pressure Level / dB (re 20 µPa/V)  [2.83  V @ 1. m]"	"Frequency / Hz"	"Sound Pressure Level / dB (re 20 µPa/V)  [2.83  V @ 1. m]"	"Frequency / Hz"	"Sound Pressure Level / dB (re 20 µPa/V)  [2.83  V @ 1. m]"	"Frequency / Hz"	"Sound Pressure Level / dB (re 20 µPa/V)  [2.83  V @ 1. m]"	"Frequency / Hz"	"Sound Pressure Level / dB (re 20 µPa/V)  [2.83  V @ 1. m]"	"Frequency / Hz"	"Sound Pressure Level / dB (re 20 µPa/V)  [2.83  V @ 1. m]"
20.5078	70.8412	20.5078	70.8169	20.5078	70.8398	20.5078	70.7669	20.5078	70.8127	20.5078	70.6913	20.5078	70.7606	20.5078	70.59	20.5078	70.6846	20.5078	70.4632	20.5078	70.5869	20.5078	70.3117	20.5078	70.4707	20.5078	70.1376	20.5078	70.3396	20.5078	69.9447	20.5078	70.1976	20.5078	69.7384	20.5078	70.0486	20.5078	69.5258	20.5078	69.8961	20.5078	69.3155	20.5078	69.743	20.5078	69.1177	20.5078	69.5916	20.5078	68.9445	20.5078	69.4432	20.5078	68.8089	20.5078	69.2981	20.5078	68.7223	20.5078	69.1566	20.5078	68.6919	20.5078	69.0202	20.5078	68.7168	20.5078	68.8943	20.5078	68.7887
21.9727	72.2306	21.9727	72.2401	21.9727	72.2064	21.9727	72.235	21.9727	72.1669	21.9727	72.2153	21.9727	72.1116	21.9727	72.1809	21.9727	72.0406	21.9727	72.1312	21.9727	71.954	21.9727	72.0662	21.9727	71.8533	21.9727	71.9861	21.9727	71.7404	21.9727	71.8918	21.9727	71.6184	21.9727	71.7853	21.9727	71.4908	21.9727	71.6695	21.9727	71.3619	21.9727	71.5484	21.9727	71.2362	21.9727	71.4258	21.9727	71.1187	21.9727	71.3058	21.9727	71.015	21.9727	71.192	21.9727	70.9307	21.9727	71.0875	21.9727	70.8711	21.9727	70.9958	21.9727	70.84	21.9727	70.9208	21.9727	70.839	21.9727	70.8671
23.4375	73.2076	23.4375	73.1936	23.4375	73.2081	23.4375	73.1664	23.4375	73.1946	23.4375	73.1265	23.4375	73.1669	23.4375	73.0744	23.4375	73.1253	23.4375	73.0104	23.4375	73.0704	23.4375	72.9353	23.4375	73.0032	23.4375	72.8499	23.4375	72.9256	23.4375	72.7559	23.4375	72.8397	23.4375	72.6558	23.4375	72.7483	23.4375	72.5532	23.4375	72.6543	23.4375	72.4527	23.4375	72.5611	23.4375	72.3592	23.4375	72.4718	23.4375	72.2777	23.4375	72.3894	23.4375	72.2123	23.4375	72.3162	23.4375	72.1658	23.4375	72.2538	23.4375	72.139	23.4375	72.2032	23.4375	72.1312	23.4375	72.1651	23.4375	72.1406
24.9023	74.1895	24.9023	74.1851	24.9023	74.1814	24.9023	74.1683	24.9023	74.1607	24.9023	74.1393	24.9023	74.1274	24.9023	74.0985	24.9023	74.0818	24.9023	74.0463	24.9023	74.0243	24.9023	73.983	24.9023	73.9559	24.9023	73.9095	24.9023	73.8777	24.9023	73.8265	24.9023	73.7913	24.9023	73.7354	24.9023	73.6988	24.9023	73.6377	24.9023	73.6027	24.9023	73.5361	24.9023	73.5057	24.9023	73.4337	24.9023	73.4111	24.9023	73.3352	24.9023	73.3221	24.9023	73.2456	24.9023	73.242	24.9023	73.1706	24.9023	73.1738	24.9023	73.1148	24.9023	73.1208	24.9023	73.0816	24.9023	73.086	24.9023	73.0722
26.3672	74.5694	26.3672	74.518	26.3672	74.6114	26.3672	74.4578	26.3672	74.6432	26.3672	74.3902	26.3672	74.6646	26.3672	74.3164	26.3672	74.6754	26.3672	74.2383	26.3672	74.6756	26.3672	74.1579	26.3672	74.6657	26.3672	74.0775	26.3672	74.6458	26.3672	73.9998	26.3672	74.6165	26.3672	73.9275	26.3672	74.578	26.3672	73.8634	26.3672	74.5304	26.3672	73.8101	26.3672	74.4739	26.3672	73.7701	26.3672	74.4084	26.3672	73.7456	26.3672	74.3344	26.3672	73.7389	26.3672	74.2528	26.3672	73.7517	26.3672	74.1655	26.3672	73.7847	26.3672	74.0756	26.3672	73.8371	26.3672	73.9874	26.3672	73.9061
27.832	74.782	27.832	74.8002	27.832	74.7541	27.832	74.8084	27.832	74.7169	27.832	74.8068	27.832	74.6716	27.832	74.7957	27.832	74.6198	27.832	74.7761	27.832	74.5633	27.832	74.7491	27.832	74.5046	27.832	74.716	27.832	74.4464	27.832	74.6786	27.832	74.3915	27.832	74.6383	27.832	74.3421	27.832	74.5966	27.832	74.3003	27.832	74.5544	27.832	74.267	27.832	74.5119	27.832	74.2425	27.832	74.4692	27.832	74.2268	27.832	74.4262	27.832	74.2193	27.832	74.3835	27.832	74.2201	27.832	74.3423	27.832	74.2291	27.832	74.3044	27.832	74.2465	27.832	74.2719
29.2969	76.1479	29.2969	76.1484	29.2969	76.1325	29.2969	76.134	29.2969	76.1025	29.2969	76.1049	29.2969	76.0583	29.2969	76.0614	29.2969	76.0007	29.2969	76.0043	29.2969	75.9308	29.2969	75.9345	29.2969	75.8497	29.2969	75.8532	29.2969	75.7593	29.2969	75.762	29.2969	75.6614	29.2969	75.6628	29.2969	75.5584	29.2969	75.5576	29.2969	75.4532	29.2969	75.4488	29.2969	75.3488	29.2969	75.3393	29.2969	75.2484	29.2969	75.2327	29.2969	75.1554	29.2969	75.1337	29.2969	75.073	29.2969	75.0479	29.2969	75.0047	29.2969	74.9805	29.2969	74.9537	29.2969	74.9361	29.2969	74.9235	29.2969	74.917
30.7617	76.7596	30.7617	76.7542	30.7617	76.7506	30.7617	76.7344	30.7617	76.7275	30.7617	76.7006	30.7617	76.6905	30.7617	76.6531	30.7617	76.6402	30.7617	76.5926	30.7617	76.5774	30.7617	76.5202	30.7617	76.5034	30.7617	76.4371	30.7617	76.4195	30.7617	76.345	30.7617	76.3278	30.7617	76.2459	30.7617	76.2307	30.7617	76.1421	30.7617	76.1312	30.7617	76.0367	30.7617	76.0325	30.7617	75.933	30.7617	75.9378	30.7617	75.8351	30.7617	75.8497	30.7617	75.7478	30.7617	75.7705	30.7617	75.6761	30.7617	75.7024	30.7617	75.6245	30.7617	75.6478	30.7617	75.596	30.7617	75.6098	30.7617	75.5915
32.2266	76.8205	32.2266	76.8151	32.2266	76.8134	32.2266	76.7975	32.2266	76.7943	32.2266	76.7678	32.2266	76.7633	32.2266	76.7265	32.2266	76.7211	32.2266	76.6744	32.2266	76.6685	32.2266	76.6125	32.2266	76.6064	32.2266	76.5418	32.2266	76.5359	32.2266	76.4639	32.2266	76.4585	32.2266	76.3802	32.2266	76.376	32.2266	76.2927	32.2266	76.2905	32.2266	76.2035	32.2266	76.2046	32.2266	76.115	32.2266	76.121	32.2266	76.0305	32.2266	76.0424	32.2266	75.9541	32.2266	75.9713	32.2266	75.8904	32.2266	75.9102	32.2266	75.8438	32.2266	75.8614	32.2266	75.8173	32.2266	75.8278	32.2266	75.8123
33.6914	77.3133	33.6914	77.3099	33.6914	77.3027	33.6914	77.2925	33.6914	77.2786	33.6914	77.2614	33.6914	77.2419	33.6914	77.217	33.6914	77.1933	33.6914	77.1603	33.6914	77.1343	33.6914	77.0928	33.6914	77.0662	33.6914	77.0162	33.6914	76.9908	33.6914	76.9322	33.6914	76.91	33.6914	76.8433	33.6914	76.8259	33.6914	76.7519	33.6914	76.741	33.6914	76.6608	33.6914	76.6577	33.6914	76.5731	33.6914	76.5785	33.6914	76.4921	33.6914	76.5057	33.6914	76.4216	33.6914	76.441	33.6914	76.365	33.6914	76.3864	33.6914	76.325	33.6914	76.3434	33.6914	76.3033	33.6914	76.3139	33.6914	76.2999
35.1562	77.8129	35.1562	77.8164	35.1562	77.7943	35.1562	77.8046	35.1562	77.7611	35.1562	77.7777	35.1562	77.7139	35.1562	77.7361	35.1562	77.6537	35.1562	77.6806	35.1562	77.5818	35.1562	77.6123	35.1562	77.4998	35.1562	77.5326	35.1562	77.4096	35.1562	77.4432	35.1562	77.3135	35.1562	77.346	35.1562	77.2142	35.1562	77.2434	35.1562	77.1145	35.1562	77.1378	35.1562	77.0174	35.1562	77.0324	35.1562	76.9259	35.1562	76.9311	35.1562	76.8427	35.1562	76.8384	35.1562	76.7703	35.1562	76.759	35.1562	76.7111	35.1562	76.6973	35.1562	76.6677	35.1562	76.6566	35.1562	76.6427	35.1562	76.6384
36.6211	77.9231	36.6211	77.9267	36.6211	77.9051	36.6211	77.9163	36.6211	77.8731	36.6211	77.8922	36.6211	77.8276	36.6211	77.8553	36.6211	77.7693	36.6211	77.8066	36.6211	77.6995	36.6211	77.7475	36.6211	77.6197	36.6211	77.6796	36.6211	77.532	36.6211	77.6044	36.6211	77.439	36.6211	77.5237	36.6211	77.3437	36.6211	77.4391	36.6211	77.2496	36.6211	77.3524	36.6211	77.1605	36.6211	77.2656	36.6211	77.08	36.6211	77.1812	36.6211	77.0113	36.6211	77.1023	36.6211	76.9567	36.6211	77.032	36.6211	76.9177	36.6211	76.9736	36.6211	76.8952	36.6211	76.9294	36.6211	76.8896	36.6211	76.9011
38.0859	79.0403	38.0859	79.0006	38.0859	79.0628	38.0859	78.9441	38.0859	79.0677	38.0859	78.8715	38.0859	79.0546	38.0859	78.7832	38.0859	79.023	38.0859	78.6802	38.0859	78.9725	38.0859	78.5633	38.0859	78.9027	38.0859	78.4337	38.0859	78.8133	38.0859	78.2929	38.0859	78.7042	38.0859	78.1429	38.0859	78.5757	38.0859	77.9862	38.0859	78.4287	38.0859	77.8261	38.0859	78.2653	38.0859	77.6678	38.0859	78.0891	38.0859	77.5178	38.0859	77.9057	38.0859	77.3851	38.0859	77.7232	38.0859	77.2795	38.0859	77.5517	38.0859	77.2111	38.0859	77.4024	38.0859	77.1876	38.0859	77.2865	38.0859	77.213
39.5508	79.1767	39.5508	79.167	39.5508	79.1755	39.5508	79.1462	39.5508	79.1635	39.5508	79.1148	39.5508	79.1412	39.5508	79.0732	39.5508	79.1093	39.5508	79.0224	39.5508	79.0684	39.5508	78.9637	39.5508	79.0193	39.5508	78.8986	39.5508	78.9629	39.5508	78.8289	39.5508	78.9	39.5508	78.7564	39.5508	78.8317	39.5508	78.6832	39.5508	78.7591	39.5508	78.6109	39.5508	78.6838	39.5508	78.5417	39.5508	78.6077	39.5508	78.4774	39.5508	78.5336	39.5508	78.4202	39.5508	78.4645	39.5508	78.3724	39.5508	78.4043	39.5508	78.3366	39.5508	78.3569	39.5508	78.3156	39.5508	78.3253	39.5508	78.3114
41.0156	79.1113	41.0156	79.1126	41.0156	79.1075	41.0156	79.1112	41.0156	79.102	41.0156	79.1074	41.0156	79.096	41.0156	79.1021	41.0156	79.0909	41.0156	79.0967	41.0156	79.0885	41.0156	79.0928	41.0156	79.0903	41.0156	79.0924	41.0156	79.0978	41.0156	79.0972	41.0156	79.1121	41.0156	79.1087	41.0156	79.1335	41.0156	79.1277	41.0156	79.1619	41.0156	79.154	41.0156	79.196	41.0156	79.1863	41.0156	79.2336	41.0156	79.2225	41.0156	79.2717	41.0156	79.2597	41.0156	79.3069	41.0156	79.2948	41.0156	79.3357	41.0156	79.325	41.0156	79.3552	41.0156	79.3478	41.0156	79.3639	41.0156	79.3612
42.4805	79.7026	42.4805	79.6989	42.4805	79.6906	42.4805	79.6797	42.4805	79.6636	42.4805	79.6455	42.4805	79.6224	42.4805	79.5974	42.4805	79.5684	42.4805	79.5371	42.4805	79.5037	42.4805	79.4668	42.4805	79.4305	42.4805	79.3892	42.4805	79.3516	42.4805	79.3075	42.4805	79.27	42.4805	79.2249	42.4805	79.1889	42.4805	79.1449	42.4805	79.1115	42.4805	79.0707	42.4805	79.0409	42.4805	79.0048	42.4805	78.9796	42.4805	78.9494	42.4805	78.9297	42.4805	78.9059	42.4805	78.892	42.4805	78.8745	42.4805	78.8661	42.4805	78.8544	42.4805	78.8503	42.4805	78.8436	42.4805	78.8421	42.4805	78.8399
43.9453	80.3526	43.9453	80.3515	43.9453	80.3366	43.9453	80.3335	43.9453	80.3038	43.9453	80.2989	43.9453	80.2545	43.9453	80.2485	43.9453	80.1895	43.9453	80.1833	43.9453	80.1101	43.9453	80.1049	43.9453	80.0177	43.9453	80.0148	43.9453	79.9145	43.9453	79.9152	43.9453	79.8029	43.9453	79.8084	43.9453	79.6863	43.9453	79.697	43.9453	79.5681	43.9453	79.5836	43.9453	79.4521	43.9453	79.4714	43.9453	79.3425	43.9453	79.3637	43.9453	79.243	43.9453	79.2641	43.9453	79.1578	43.9453	79.1768	43.9453	79.0907	43.9453	79.1058	43.9453	79.045	43.9453	79.0548	43.9453	79.0232	43.9453	79.0266
45.4102	80.6323	45.4102	80.6266	45.4102	80.6265	45.4102	80.6097	45.4102	80.6095	45.4102	80.5819	45.4102	80.5814	45.4102	80.544	45.4102	80.5429	45.4102	80.4966	45.4102	80.4949	45.4102	80.4411	45.4102	80.4385	45.4102	80.3784	45.4102	80.3753	45.4102	80.3102	45.4102	80.307	45.4102	80.2379	45.4102	80.2358	45.4102	80.1632	45.4102	80.164	45.4102	80.0883	45.4102	80.0936	45.4102	80.0155	45.4102	80.0267	45.4102	79.9477	45.4102	79.9648	45.4102	79.8879	45.4102	79.9093	45.4102	79.8395	45.4102	79.8616	45.4102	79.805	45.4102	79.8235	45.4102	79.7863	45.4102	79.7968	45.4102	79.7839
46.875	80.511	46.875	80.507	46.875	80.5059	46.875	80.494	46.875	80.4918	46.875	80.4728	46.875	80.4696	46.875	80.4445	46.875	80.4406	46.875	80.4107	46.875	80.4064	46.875	80.3736	46.875	80.3693	46.875	80.3353	46.875	80.3315	46.875	80.298	46.875	80.2957	46.875	80.2639	46.875	80.2645	46.875	80.2343	46.875	80.24	46.875	80.2105	46.875	80.2235	46.875	80.1931	46.875	80.2153	46.875	80.1824	46.875	80.214	46.875	80.1786	46.875	80.2169	46.875	80.1812	46.875	80.2204	46.875	80.1889	46.875	80.2214	46.875	80.1996	46.875	80.218	46.875	80.2102
48.3398	80.5844	48.3398	80.579	48.3398	80.5813	48.3398	80.5655	48.3398	80.5701	48.3398	80.5448	48.3398	80.5519	48.3398	80.5189	48.3398	80.5286	48.3398	80.4902	48.3398	80.5025	48.3398	80.4614	48.3398	80.4764	48.3398	80.4357	48.3398	80.4534	48.3398	80.4156	48.3398	80.4364	48.3398	80.4036	48.3398	80.4277	48.3398	80.4011	48.3398	80.429	48.3398	80.4084	48.3398	80.4406	48.3398	80.425	48.3398	80.4615	48.3398	80.4493	48.3398	80.4891	48.3398	80.4788	48.3398	80.5193	48.3398	80.5101	48.3398	80.5472	48.3398	80.5394	48.3398	80.5682	48.3398	80.5628	48.3398	80.5785	48.3398	80.5766
51.2695	82.4492	51.2695	82.4613	51.2695	82.4063	51.2695	82.4426	51.2695	82.3332	51.2695	82.3934	51.2695	82.2307	51.2695	82.3144	51.2695	82.1003	51.2695	82.2068	51.2695	81.9444	51.2695	82.0727	51.2695	81.7663	51.2695	81.9152	51.2695	81.5707	51.2695	81.7389	51.2695	81.3636	51.2695	81.5493	51.2695	81.1528	51.2695	81.3535	51.2695	80.947	51.2695	81.1586	51.2695	80.7552	51.2695	80.972	51.2695	80.586	51.2695	80.7998	51.2695	80.4464	51.2695	80.647	51.2695	80.3413	51.2695	80.5165	51.2695	80.2727	51.2695	80.4098	51.2695	80.2399	51.2695	80.3275	51.2695	80.2402	51.2695	80.2704
52.7344	82.8329	52.7344	82.8404	52.7344	82.7914	52.7344	82.8137	52.7344	82.7164	52.7344	82.753	52.7344	82.6086	52.7344	82.6589	52.7344	82.4692	52.7344	82.5323	52.7344	82.2996	52.7344	82.3751	52.7344	82.1019	52.7344	82.1898	52.7344	81.8792	52.7344	81.9795	52.7344	81.6355	52.7344	81.7479	52.7344	81.3762	52.7344	81.4995	52.7344	81.1084	52.7344	81.2396	52.7344	80.8406	52.7344	80.9747	52.7344	80.583	52.7344	80.7129	52.7344	80.3468	52.7344	80.4648	52.7344	80.1433	52.7344	80.2421	52.7344	79.9833	52.7344	80.0573	52.7344	79.8761	52.7344	79.9217	52.7344	79.8285	52.7344	79.8438
54.1992	82.2628	54.1992	82.2699	54.1992	82.2285	54.1992	82.2498	54.1992	82.167	54.1992	82.2029	54.1992	82.079	54.1992	82.1298	54.1992	81.9655	54.1992	82.0316	54.1992	81.8282	54.1992	81.9096	54.1992	81.6692	54.1992	81.7657	54.1992	81.4917	54.1992	81.6024	54.1992	81.2996	54.1992	81.423	54.1992	81.098	54.1992	81.2321	54.1992	80.8933	54.1992	81.035	54.1992	80.6934	54.1992	80.8382	54.1992	80.5073	54.1992	80.649	54.1992	80.3438	54.1992	80.4747	54.1992	80.2108	54.1992	80.3225	54.1992	80.1134	54.1992	80.1985	54.1992	80.0542	54.1992	80.1073	54.1992	80.0338	54.1992	80.0518
55.6641	82.0298	55.6641	82.0143	55.6641	82.0261	55.6641	81.9801	55.6641	82.0029	55.6641	81.928	55.6641	81.9601	55.6641	81.8587	55.6641	81.8977	55.6641	81.7732	55.6641	81.816	55.6641	81.6727	55.6641	81.7155	55.6641	81.5585	55.6641	81.5971	55.6641	81.432	55.6641	81.4622	55.6641	81.2949	55.6641	81.3126	55.6641	81.1495	55.6641	81.1513	55.6641	80.9986	55.6641	80.9826	55.6641	80.8465	55.6641	80.813	55.6641	80.6983	55.6641	80.6511	55.6641	80.5606	55.6641	80.5061	55.6641	80.4401	55.6641	80.3874	55.6641	80.344	55.6641	80.3022	55.6641	80.2781	55.6641	80.2551	55.6641	80.2474
58.5938	82.488	58.5938	82.4634	58.5938	82.5	58.5938	82.4266	58.5938	82.4991	58.5938	82.3781	58.5938	82.4855	58.5938	82.3187	58.5938	82.4591	58.5938	82.2495	58.5938	82.4202	58.5938	82.1718	58.5938	82.3692	58.5938	82.0872	58.5938	82.3066	58.5938	81.9978	58.5938	82.2334	58.5938	81.9061	58.5938	82.1511	58.5938	81.8152	58.5938	82.0618	58.5938	81.7284	58.5938	81.9683	58.5938	81.6496	58.5938	81.8742	58.5938	81.5824	58.5938	81.7832	58.5938	81.5298	58.5938	81.6992	58.5938	81.4937	58.5938	81.6256	58.5938	81.4748	58.5938	81.5648	58.5938	81.473	58.5938	81.5186	58.5938	81.4878
60.0586	82.6355	60.0586	82.5995	60.0586	82.6572	60.0586	82.5496	60.0586	82.6645	60.0586	82.4867	60.0586	82.6576	60.0586	82.4119	60.0586	82.6373	60.0586	82.3271	60.0586	82.6042	60.0586	82.2347	60.0586	82.5594	60.0586	82.1375	60.0586	82.5044	60.0586	82.0387	60.0586	82.4406	60.0586	81.9421	60.0586	82.3698	60.0586	81.8517	60.0586	82.2941	60.0586	81.7714	60.0586	82.2154	60.0586	81.7053	60.0586	82.1355	60.0586	81.6568	60.0586	82.056	60.0586	81.6285	60.0586	81.9782	60.0586	81.6215	60.0586	81.9033	60.0586	81.6348	60.0586	81.8328	60.0586	81.666	60.0586	81.7681	60.0586	81.7116
62.9883	83.0518	62.9883	83.0382	62.9883	83.0497	62.9883	83.0091	62.9883	83.0318	62.9883	82.9653	62.9883	82.9984	62.9883	82.908	62.9883	82.9504	62.9883	82.8386	62.9883	82.8888	62.9883	82.7592	62.9883	82.815	62.9883	82.6717	62.9883	82.7307	62.9883	82.5787	62.9883	82.638	62.9883	82.4825	62.9883	82.5394	62.9883	82.3858	62.9883	82.4377	62.9883	82.2912	62.9883	82.336	62.9883	82.2015	62.9883	82.2379	62.9883	82.1194	62.9883	82.1468	62.9883	82.0477	62.9883	82.0665	62.9883	81.989	62.9883	82.0002	62.9883	81.9454	62.9883	81.9509	62.9883	81.9185	62.9883	81.9206	62.9883	81.9099
64.4531	82.9965	64.4531	82.9902	64.4531	82.9903	64.4531	82.9716	64.4531	82.972	64.4531	82.9414	64.4531	82.9424	64.4531	82.9008	64.4531	82.9026	64.4531	82.8515	64.4531	82.8544	64.4531	82.7956	64.4531	82.7993	64.4531	82.7355	64.4531	82.7393	64.4531	82.6736	64.4531	82.6764	64.4531	82.6123	64.4531	82.6124	64.4531	82.5536	64.4531	82.5491	64.4531	82.4992	64.4531	82.4884	64.4531	82.4501	64.4531	82.4321	64.4531	82.4068	64.4531	82.3822	64.4531	82.3693	64.4531	82.3404	64.4531	82.3376	64.4531	82.3086	64.4531	82.3118	64.4531	82.288	64.4531	82.2925	64.4531	82.279	64.4531	82.281
67.3828	83.3335	67.3828	83.3216	67.3828	83.3305	67.3828	83.2952	67.3828	83.3128	67.3828	83.2551	67.3828	83.2812	67.3828	83.203	67.3828	83.2368	67.3828	83.1407	67.3828	83.1816	67.3828	83.071	67.3828	83.1177	67.3828	82.9967	67.3828	83.048	67.3828	82.9212	67.3828	82.9751	67.3828	82.8481	67.3828	82.9022	67.3828	82.7805	67.3828	82.8321	67.3828	82.7212	67.3828	82.7673	67.3828	82.672	67.3828	82.7101	67.3828	82.6334	67.3828	82.6621	67.3828	82.6049	67.3828	82.6241	67.3828	82.585	67.3828	82.5961	67.3828	82.5722	67.3828	82.5775	67.3828	82.5651	67.3828	82.567	67.3828	82.5632
