"SPL Horizontal"
"On-Axis"		"10°"		"-10°"		"20°"		"-20°"		"30°"		"-30°"		"40°"		"-40°"		"50°"		"-50°"		"60°"		"-60°"		"70°"		"-70°"		"80°"		"-80°"		"90°"		"-90°"		"100°"		"-100°"		"110°"		"-110°"		"120°"		"-120°"		"130°"		"-130°"		"140°"		"-140°"		"150°"		"-150°"		"160°"		"-160°"		"170°"		"-170°"		"180°"
"Frequency / Hz"	"Sound Pressure Level / dB (re 20 µPa/V)  [2.83  V @ 1. m]"	"Frequency / Hz"	"Sound Pressure Level / dB (re 20 µPa/V)  [2.83  V @ 1. m]"	"Frequency / Hz"	"Sound Pressure Level / dB (re 20 µPa/V)  [2.83  V @ 1. m]"	"Frequency / Hz"	"Sound Pressure Level / dB (re 20 µPa/V)  [2.83  V @ 1. m]"	"Frequency / Hz"	"Sound Pressure Level / dB (re 20 µPa/V)  [2.83  V @ 1. m]"	"Frequency / Hz"	"Sound Pressure Level / dB (re 20 µPa/V)  [2.83  V @ 1. m]"	"Frequency / Hz"	"Sound Pressure Level / dB (re 20 µPa/V)  [2.83  V @ 1. m]"	"Frequency / Hz"	"Sound Pressure Level / dB (re 20 µPa/V)  [2.83  V @ 1. m]"	"Frequency / Hz"	"Sound Pressure Level / dB (re 20 µPa/V)  [2.83  V @ 1. m]"	"Frequency / Hz"	"Sound Pressure Level / dB (re 20 µPa/V)  [2.83  V @ 1. m]"	"Frequency / Hz"	"Sound Pressure Level / dB (re 20 µPa/V)  [2.83  V @ 1. m]"	"Frequency / Hz"	"Sound Pressure Level / dB (re 20 µPa/V)  [2.83  V @ 1. m]"	"Frequency / Hz"	"Sound Pressure Level / dB (re 20 µPa/V)  [2.83  V @ 1. m]"	"Frequency / Hz"	"Sound Pressure Level / dB (re 20 µPa/V)  [2.83  V @ 1. m]"	"Frequency / Hz"	"Sound Pressure Level / dB (re 20 µPa/V)  [2.83  V @ 1. m]"	"Frequency / Hz"	"Sound Pressure Level / dB (re 20 µPa/V)  [2.83  V @ 1. m]"	"Frequency / Hz"	"Sound Pressure Level / dB (re 20 µPa/V)  [2.83  V @ 1. m]"	"Frequency / Hz"	"Sound Pressure Level / dB (re 20 µPa/V)  [2.83  V @ 1. m]"	"Frequency / Hz"	"Sound Pressure Level / dB (re 20 µPa/V)  [2.83  V @ 1. m]"	"Frequency / Hz"	"Sound Pressure Level / dB (re 20 µPa/V)  [2.83  V @ 1. m]"	"Frequency / Hz"	"Sound Pressure Level / dB (re 20 µPa/V)  [2.83  V @ 1. m]"	"Frequency / Hz"	"Sound Pressure Level / dB (re 20 µPa/V)  [2.83  V @ 1. m]"	"Frequency / Hz"	"Sound Pressure Level / dB (re 20 µPa/V)  [2.83  V @ 1. m]"	"Frequency / Hz"	"Sound Pressure Level / dB (re 20 µPa/V)  [2.83  V @ 1. m]"	"Frequency / Hz"	"Sound Pressure Level / dB (re 20 µPa/V)  [2.83  V @ 1. m]"	"Frequency / Hz"	"Sound Pressure Level / dB (re 20 µPa/V)  [2.83  V @ 1. m]"	"Frequency / Hz"	"Sound Pressure Level / dB (re 20 µPa/V)  [2.83  V @ 1. m]"	"Frequency / Hz"	"Sound Pressure Level / dB (re 20 µPa/V)  [2.83  V @ 1. m]"	"Frequency / Hz"	"Sound Pressure Level / dB (re 20 µPa/V)  [2.83  V @ 1. m]"	"Frequency / Hz"	"Sound Pressure Level / dB (re 20 µPa/V)  [2.83  V @ 1. m]"	"Frequency / Hz"	"Sound Pressure Level / dB (re 20 µPa/V)  [2.83  V @ 1. m]"	"Frequency / Hz"	"Sound Pressure Level / dB (re 20 µPa/V)  [2.83  V @ 1. m]"	"Frequency / Hz"	"Sound Pressure Level / dB (re 20 µPa/V)  [2.83  V @ 1. m]"	"Frequency / Hz"	"Sound Pressure Level / dB (re 20 µPa/V)  [2.83  V @ 1. m]"	"Frequency / Hz"	"Sound Pressure Level / dB (re 20 µPa/V)  [2.83  V @ 1. m]"	"Frequency / Hz"	"Sound Pressure Level / dB (re 20 µPa/V)  [2.83  V @ 1. m]"
20.5078	46.2126	20.5078	45.9472	20.5078	46.5291	20.5078	45.7381	20.5078	46.8929	20.5078	45.5945	20.5078	47.2991	20.5078	45.5334	20.5078	47.7403	20.5078	45.5842	20.5078	48.2059	20.5078	45.7883	20.5078	48.6839	20.5078	46.1876	20.5078	49.1645	20.5078	46.8026	20.5078	49.6429	20.5078	47.615	20.5078	50.1213	20.5078	48.5692	20.5078	50.6066	20.5078	49.5911	20.5078	51.1069	20.5078	50.6062	20.5078	51.625	20.5078	51.5493	20.5078	52.1527	20.5078	52.3683	20.5078	52.6672	20.5078	53.0255	20.5078	53.1337	20.5078	53.4975	20.5078	53.5121	20.5078	53.7747	20.5078	53.7644	20.5078	53.8594
21.9727	30.9978	21.9727	31.6241	21.9727	30.6805	21.9727	32.6605	21.9727	30.6036	21.9727	34.1366	21.9727	30.7718	21.9727	35.9444	21.9727	31.2402	21.9727	37.896	21.9727	32.064	21.9727	39.8221	21.9727	33.2541	21.9727	41.6149	21.9727	34.7683	21.9727	43.2229	21.9727	36.5331	21.9727	44.6323	21.9727	38.4652	21.9727	45.8529	21.9727	40.4757	21.9727	46.9063	21.9727	42.4696	21.9727	47.8168	21.9727	44.3523	21.9727	48.6013	21.9727	46.0409	21.9727	49.2624	21.9727	47.4744	21.9727	49.7872	21.9727	48.6177	21.9727	50.1523	21.9727	49.4604	21.9727	50.3303	21.9727	50.0118	21.9727	50.2928
23.4375	33.1284	23.4375	32.0506	23.4375	34.1296	23.4375	30.8304	23.4375	35.0795	23.4375	29.3549	23.4375	35.9735	23.4375	27.4493	23.4375	36.7875	23.4375	24.823	23.4375	37.4891	23.4375	20.9214	23.4375	38.0446	23.4375	15.5341	23.4375	38.4255	23.4375	17.8949	23.4375	38.6164	23.4375	23.6194	23.4375	38.6222	23.4375	27.6414	23.4375	38.4777	23.4375	30.6266	23.4375	38.2528	23.4375	32.9493	23.4375	38.0464	23.4375	34.7755	23.4375	37.9551	23.4375	36.1896	23.4375	38.0232	23.4375	37.2437	23.4375	38.2154	23.4375	37.9762	23.4375	38.4415	23.4375	38.4213	23.4375	38.6019	23.4375	38.6151
24.9023	37.0776	24.9023	36.8826	24.9023	37.3372	24.9023	36.7626	24.9023	37.6472	24.9023	36.726	24.9023	37.9883	24.9023	36.7794	24.9023	38.3353	24.9023	36.9233	24.9023	38.659	24.9023	37.146	24.9023	38.9293	24.9023	37.4208	24.9023	39.1197	24.9023	37.7084	24.9023	39.2122	24.9023	37.966	24.9023	39.2012	24.9023	38.1569	24.9023	39.0938	24.9023	38.257	24.9023	38.9075	24.9023	38.258	24.9023	38.6658	24.9023	38.1682	24.9023	38.3944	24.9023	38.0111	24.9023	38.1193	24.9023	37.8227	24.9023	37.8662	24.9023	37.6458	24.9023	37.6603	24.9023	37.5206	24.9023	37.5247	24.9023	37.4764
26.3672	42.7638	26.3672	42.8342	26.3672	42.728	26.3672	42.938	26.3672	42.7271	26.3672	43.074	26.3672	42.759	26.3672	43.2419	26.3672	42.8188	26.3672	43.4413	26.3672	42.9	26.3672	43.6693	26.3672	42.9958	26.3672	43.9188	26.3672	43.1005	26.3672	44.1768	26.3672	43.2108	26.3672	44.4253	26.3672	43.3245	26.3672	44.6444	26.3672	43.44	26.3672	44.8161	26.3672	43.555	26.3672	44.9275	26.3672	43.6681	26.3672	44.9735	26.3672	43.7802	26.3672	44.9565	26.3672	43.8956	26.3672	44.8849	26.3672	44.0205	26.3672	44.771	26.3672	44.159	26.3672	44.6285	26.3672	44.3111	26.3672	44.471
27.832	49.7731	27.832	49.7887	27.832	49.7705	27.832	49.8175	27.832	49.7803	27.832	49.8591	27.832	49.801	27.832	49.9119	27.832	49.8306	27.832	49.9738	27.832	49.867	27.832	50.0413	27.832	49.9078	27.832	50.1101	27.832	49.9509	27.832	50.1755	27.832	49.9948	27.832	50.2328	27.832	50.0399	27.832	50.2783	27.832	50.0877	27.832	50.3101	27.832	50.1398	27.832	50.3286	27.832	50.1961	27.832	50.3371	27.832	50.2534	27.832	50.3407	27.832	50.3057	27.832	50.3449	27.832	50.3465	27.832	50.3529	27.832	50.3714	27.832	50.3645	27.832	50.3799	27.832	50.3756
29.2969	52.1074	29.2969	52.1442	29.2969	52.0889	29.2969	52.1998	29.2969	52.0882	29.2969	52.2754	29.2969	52.1054	29.2969	52.3717	29.2969	52.1408	29.2969	52.4888	29.2969	52.1946	29.2969	52.6252	29.2969	52.2666	29.2969	52.7777	29.2969	52.3563	29.2969	52.9407	29.2969	52.4632	29.2969	53.1066	29.2969	52.5864	29.2969	53.2669	29.2969	52.7254	29.2969	53.4134	29.2969	52.8781	29.2969	53.5396	29.2969	53.0403	29.2969	53.6417	29.2969	53.2046	29.2969	53.7183	29.2969	53.3618	29.2969	53.7693	29.2969	53.5023	29.2969	53.7946	29.2969	53.6188	29.2969	53.7937	29.2969	53.7068	29.2969	53.7649
30.7617	55.8242	30.7617	55.8472	30.7617	55.8268	30.7617	55.8961	30.7617	55.8541	30.7617	55.9708	30.7617	55.9053	30.7617	56.0699	30.7617	55.9789	30.7617	56.1909	30.7617	56.0731	30.7617	56.3299	30.7617	56.186	30.7617	56.4816	30.7617	56.3152	30.7617	56.6402	30.7617	56.4579	30.7617	56.7996	30.7617	56.6117	30.7617	56.9542	30.7617	56.7736	30.7617	57.0999	30.7617	56.9397	30.7617	57.234	30.7617	57.1046	30.7617	57.3549	30.7617	57.2614	30.7617	57.4609	30.7617	57.4018	30.7617	57.55	30.7617	57.5183	30.7617	57.6185	30.7617	57.6049	30.7617	57.6622	30.7617	57.6579	30.7617	57.6764
32.2266	58.5126	32.2266	58.5093	32.2266	58.5396	32.2266	58.5307	32.2266	58.5891	32.2266	58.5773	32.2266	58.6598	32.2266	58.6493	32.2266	58.75	32.2266	58.7459	32.2266	58.8579	32.2266	58.865	32.2266	58.9811	32.2266	59.0038	32.2266	59.1169	32.2266	59.1578	32.2266	59.2625	32.2266	59.3217	32.2266	59.4148	32.2266	59.4892	32.2266	59.5707	32.2266	59.6545	32.2266	59.7267	32.2266	59.8125	32.2266	59.8786	32.2266	59.9587	32.2266	60.0208	32.2266	60.0896	32.2266	60.1472	32.2266	60.2012	32.2266	60.2512	32.2266	60.2892	32.2266	60.3266	32.2266	60.349	32.2266	60.3691	32.2266	60.3765
33.6914	61.2692	33.6914	61.2714	33.6914	61.2883	33.6914	61.2951	33.6914	61.328	33.6914	61.3405	33.6914	61.3873	33.6914	61.4071	33.6914	61.465	33.6914	61.494	33.6914	61.5594	33.6914	61.5994	33.6914	61.6688	33.6914	61.7209	33.6914	61.7908	33.6914	61.8555	33.6914	61.9229	33.6914	61.9989	33.6914	62.0623	33.6914	62.147	33.6914	62.2064	33.6914	62.295	33.6914	62.3518	33.6914	62.439	33.6914	62.4945	33.6914	62.5749	33.6914	62.6296	33.6914	62.6987	33.6914	62.7507	33.6914	62.8058	33.6914	62.8512	33.6914	62.8909	33.6914	62.9249	33.6914	62.9487	33.6914	62.967	33.6914	62.9749
35.1562	63.9039	35.1562	63.9059	35.1562	63.9196	35.1562	63.926	35.1562	63.9527	35.1562	63.9642	35.1562	64.0024	35.1562	64.0201	35.1562	64.0677	35.1562	64.0928	35.1562	64.1474	35.1562	64.181	35.1562	64.2399	35.1562	64.2825	35.1562	64.3435	35.1562	64.3947	35.1562	64.4558	35.1562	64.5142	35.1562	64.5746	35.1562	64.6373	35.1562	64.6974	35.1562	64.7607	35.1562	64.8211	35.1562	64.8809	35.1562	64.9423	35.1562	64.9949	35.1562	65.0564	35.1562	65.0993	35.1562	65.158	35.1562	65.1903	35.1562	65.2415	35.1562	65.2635	35.1562	65.3016	35.1562	65.3142	35.1562	65.3347	35.1562	65.3388
36.6211	66.6483	36.6211	66.6258	36.6211	66.6842	36.6211	66.6177	36.6211	66.7323	36.6211	66.6244	36.6211	66.7915	36.6211	66.6465	36.6211	66.8605	36.6211	66.6838	36.6211	66.9377	36.6211	66.7359	36.6211	67.0215	36.6211	66.8017	36.6211	67.1101	36.6211	66.8799	36.6211	67.2017	36.6211	66.9684	36.6211	67.2945	36.6211	67.0651	36.6211	67.3867	36.6211	67.1676	36.6211	67.4763	36.6211	67.2733	36.6211	67.5609	36.6211	67.3792	36.6211	67.6374	36.6211	67.4817	36.6211	67.702	36.6211	67.5764	36.6211	67.7505	36.6211	67.6583	36.6211	67.779	36.6211	67.7227	36.6211	67.7845	36.6211	67.7656
38.0859	69.447	38.0859	69.4408	38.0859	69.4668	38.0859	69.4486	38.0859	69.4996	38.0859	69.4707	38.0859	69.5443	38.0859	69.5071	38.0859	69.6003	38.0859	69.5572	38.0859	69.6663	38.0859	69.6201	38.0859	69.7413	38.0859	69.6945	38.0859	69.8239	38.0859	69.7787	38.0859	69.9127	38.0859	69.8704	38.0859	70.0057	38.0859	69.9672	38.0859	70.1007	38.0859	70.0663	38.0859	70.1949	38.0859	70.1647	38.0859	70.2853	38.0859	70.2594	38.0859	70.3684	38.0859	70.3468	38.0859	70.4406	38.0859	70.4235	38.0859	70.4982	38.0859	70.4858	38.0859	70.538	38.0859	70.5305	38.0859	70.5573	38.0859	70.5547
39.5508	71.2335	39.5508	71.2388	39.5508	71.2421	39.5508	71.2581	39.5508	71.2645	39.5508	71.2911	39.5508	71.3002	39.5508	71.3374	39.5508	71.3489	39.5508	71.3963	39.5508	71.4098	39.5508	71.4666	39.5508	71.482	39.5508	71.547	39.5508	71.5642	39.5508	71.6357	39.5508	71.6548	39.5508	71.7306	39.5508	71.7517	39.5508	71.8292	39.5508	71.8521	39.5508	71.9288	39.5508	71.9531	39.5508	72.0263	39.5508	72.051	39.5508	72.1182	39.5508	72.1421	39.5508	72.201	39.5508	72.2227	39.5508	72.271	39.5508	72.289	39.5508	72.325	39.5508	72.3379	39.5508	72.3601	39.5508	72.3668	39.5508	72.3743
41.0156	73.1477	41.0156	73.1541	41.0156	73.153	41.0156	73.1722	41.0156	73.1698	41.0156	73.2018	41.0156	73.1978	41.0156	73.2425	41.0156	73.2366	41.0156	73.2936	41.0156	73.2854	41.0156	73.354	41.0156	73.3433	41.0156	73.4224	41.0156	73.4091	41.0156	73.4971	41.0156	73.4811	41.0156	73.5761	41.0156	73.5578	41.0156	73.6572	41.0156	73.6371	41.0156	73.7379	41.0156	73.7171	41.0156	73.8157	41.0156	73.7954	41.0156	73.888	41.0156	73.8694	41.0156	73.9521	41.0156	73.9362	41.0156	74.0052	41.0156	73.9928	41.0156	74.0447	41.0156	74.0362	41.0156	74.0685	41.0156	74.0642	41.0156	74.0751
42.4805	74.9583	42.4805	74.9596	42.4805	74.9653	42.4805	74.9693	42.4805	74.9804	42.4805	74.9874	42.4805	75.0032	42.4805	75.0134	42.4805	75.0333	42.4805	75.047	42.4805	75.0699	42.4805	75.0875	42.4805	75.1123	42.4805	75.134	42.4805	75.1594	42.4805	75.1857	42.4805	75.2102	42.4805	75.2412	42.4805	75.2635	42.4805	75.2991	42.4805	75.3182	42.4805	75.358	42.4805	75.373	42.4805	75.4159	42.4805	75.4266	42.4805	75.4707	42.4805	75.4773	42.4805	75.5201	42.4805	75.5234	42.4805	75.5617	42.4805	75.5627	42.4805	75.5931	42.4805	75.5929	42.4805	75.6125	42.4805	75.6122	42.4805	75.619
43.9453	76.9693	43.9453	76.9834	43.9453	76.9576	43.9453	76.9994	43.9453	76.9488	43.9453	77.0167	43.9453	76.9435	43.9453	77.035	43.9453	76.9418	43.9453	77.0539	43.9453	76.9441	43.9453	77.0727	43.9453	76.9501	43.9453	77.0912	43.9453	76.9594	43.9453	77.1087	43.9453	76.9713	43.9453	77.1247	43.9453	76.9851	43.9453	77.1387	43.9453	77	43.9453	77.1499	43.9453	77.0157	43.9453	77.158	43.9453	77.0318	43.9453	77.1627	43.9453	77.0485	43.9453	77.1639	43.9453	77.0657	43.9453	77.1615	43.9453	77.0834	43.9453	77.1556	43.9453	77.1012	43.9453	77.1462	43.9453	77.1182	43.9453	77.1335
45.4102	78.6326	45.4102	78.6415	45.4102	78.6251	45.4102	78.6517	45.4102	78.6193	45.4102	78.6629	45.4102	78.6155	45.4102	78.675	45.4102	78.6137	45.4102	78.6878	45.4102	78.6142	45.4102	78.7011	45.4102	78.617	45.4102	78.7147	45.4102	78.6223	45.4102	78.7284	45.4102	78.63	45.4102	78.7418	45.4102	78.6398	45.4102	78.7546	45.4102	78.6518	45.4102	78.7663	45.4102	78.6655	45.4102	78.7766	45.4102	78.6808	45.4102	78.7849	45.4102	78.6975	45.4102	78.7908	45.4102	78.7152	45.4102	78.7937	45.4102	78.7333	45.4102	78.793	45.4102	78.7508	45.4102	78.7883	45.4102	78.7665	45.4102	78.7793
46.875	80.0237	46.875	80.0316	46.875	80.0168	46.875	80.0403	46.875	80.0114	46.875	80.0497	46.875	80.0076	46.875	80.0596	46.875	80.0059	46.875	80.0699	46.875	80.0066	46.875	80.0807	46.875	80.0099	46.875	80.0917	46.875	80.0157	46.875	80.1029	46.875	80.024	46.875	80.1141	46.875	80.0345	46.875	80.125	46.875	80.0465	46.875	80.1353	46.875	80.0598	46.875	80.1445	46.875	80.0736	46.875	80.152	46.875	80.0878	46.875	80.1573	46.875	80.1019	46.875	80.1599	46.875	80.1156	46.875	80.1595	46.875	80.1285	46.875	80.1559	46.875	80.1399	46.875	80.1493
48.3398	81.1876	48.3398	81.194	48.3398	81.1822	48.3398	81.2011	48.3398	81.178	48.3398	81.209	48.3398	81.1751	48.3398	81.2174	48.3398	81.1739	48.3398	81.2261	48.3398	81.1744	48.3398	81.2351	48.3398	81.1767	48.3398	81.244	48.3398	81.1809	48.3398	81.2527	48.3398	81.1867	48.3398	81.2609	48.3398	81.1938	48.3398	81.2684	48.3398	81.202	48.3398	81.275	48.3398	81.2108	48.3398	81.2803	48.3398	81.2199	48.3398	81.2841	48.3398	81.2292	48.3398	81.2859	48.3398	81.2384	48.3398	81.2855	48.3398	81.2476	48.3398	81.283	48.3398	81.2564	48.3398	81.2785	48.3398	81.2648	48.3398	81.2723
51.2695	83.1515	51.2695	83.153	51.2695	83.15	51.2695	83.1547	51.2695	83.1485	51.2695	83.1567	51.2695	83.1469	51.2695	83.1591	51.2695	83.1454	51.2695	83.1621	51.2695	83.144	51.2695	83.1656	51.2695	83.143	51.2695	83.1694	51.2695	83.1425	51.2695	83.1734	51.2695	83.1426	51.2695	83.1773	51.2695	83.1434	51.2695	83.1808	51.2695	83.145	51.2695	83.1839	51.2695	83.1475	51.2695	83.1864	51.2695	83.1508	51.2695	83.1883	51.2695	83.1551	51.2695	83.1893	51.2695	83.1603	51.2695	83.1893	51.2695	83.1662	51.2695	83.1883	51.2695	83.1722	51.2695	83.186	51.2695	83.1778	51.2695	83.1825
52.7344	83.9015	52.7344	83.9061	52.7344	83.8942	52.7344	83.908	52.7344	83.8844	52.7344	83.9072	52.7344	83.8724	52.7344	83.9039	52.7344	83.8586	52.7344	83.8982	52.7344	83.8434	52.7344	83.8904	52.7344	83.8274	52.7344	83.8805	52.7344	83.8111	52.7344	83.8688	52.7344	83.7949	52.7344	83.8554	52.7344	83.7791	52.7344	83.8408	52.7344	83.7642	52.7344	83.8254	52.7344	83.7505	52.7344	83.8097	52.7344	83.7387	52.7344	83.7943	52.7344	83.7293	52.7344	83.7794	52.7344	83.7229	52.7344	83.7654	52.7344	83.72	52.7344	83.7525	52.7344	83.7207	52.7344	83.7412	52.7344	83.7247	52.7344	83.7317
54.1992	84.4298	54.1992	84.4402	54.1992	84.415	54.1992	84.446	54.1992	84.396	54.1992	84.447	54.1992	84.3734	54.1992	84.4432	54.1992	84.3476	54.1992	84.4344	54.1992	84.3191	54.1992	84.4205	54.1992	84.2886	54.1992	84.4017	54.1992	84.2566	54.1992	84.3779	54.1992	84.2239	54.1992	84.3497	54.1992	84.1913	54.1992	84.3178	54.1992	84.1598	54.1992	84.2834	54.1992	84.1304	54.1992	84.2477	54.1992	84.1045	54.1992	84.2122	54.1992	84.0833	54.1992	84.1781	54.1992	84.0681	54.1992	84.1466	54.1992	84.0595	54.1992	84.1186	54.1992	84.0582	54.1992	84.095	54.1992	84.064	54.1992	84.0765
55.6641	84.7706	55.6641	84.7743	55.6641	84.7612	55.6641	84.7723	55.6641	84.7465	55.6641	84.7646	55.6641	84.7265	55.6641	84.7514	55.6641	84.7016	55.6641	84.7327	55.6641	84.6721	55.6641	84.7091	55.6641	84.6385	55.6641	84.681	55.6641	84.6012	55.6641	84.6492	55.6641	84.5609	55.6641	84.6143	55.6641	84.5186	55.6641	84.5771	55.6641	84.4756	55.6641	84.5384	55.6641	84.4334	55.6641	84.4991	55.6641	84.3941	55.6641	84.4602	55.6641	84.3598	55.6641	84.4227	55.6641	84.3324	55.6641	84.3881	55.6641	84.3136	55.6641	84.3576	55.6641	84.3044	55.6641	84.3327	55.6641	84.305	55.6641	84.3147
58.5938	85.3175	58.5938	85.3106	58.5938	85.3212	58.5938	85.3005	58.5938	85.3213	58.5938	85.2878	58.5938	85.318	58.5938	85.2728	58.5938	85.3113	58.5938	85.256	58.5938	85.3014	58.5938	85.2379	58.5938	85.2884	58.5938	85.2189	58.5938	85.2726	58.5938	85.1994	58.5938	85.2542	58.5938	85.1796	58.5938	85.2335	58.5938	85.16	58.5938	85.2112	58.5938	85.1408	58.5938	85.1879	58.5938	85.1226	58.5938	85.1645	58.5938	85.1061	58.5938	85.1421	58.5938	85.0921	58.5938	85.1216	58.5938	85.0813	58.5938	85.104	58.5938	85.0743	58.5938	85.0898	58.5938	85.0716	58.5938	85.0795	58.5938	85.0734
60.0586	85.4881	60.0586	85.4821	60.0586	85.4896	60.0586	85.4719	60.0586	85.4866	60.0586	85.458	60.0586	85.4791	60.0586	85.4409	60.0586	85.4673	60.0586	85.4212	60.0586	85.4516	60.0586	85.3994	60.0586	85.4325	60.0586	85.3763	60.0586	85.4106	60.0586	85.3523	60.0586	85.3865	60.0586	85.3279	60.0586	85.3612	60.0586	85.3038	60.0586	85.3354	60.0586	85.2805	60.0586	85.31	60.0586	85.2589	60.0586	85.286	60.0586	85.2397	60.0586	85.2641	60.0586	85.2238	60.0586	85.245	60.0586	85.2118	60.0586	85.2291	60.0586	85.2042	60.0586	85.2166	60.0586	85.2011	60.0586	85.2076	60.0586	85.2023
62.9883	85.5695	62.9883	85.565	62.9883	85.568	62.9883	85.5546	62.9883	85.5604	62.9883	85.5387	62.9883	85.5469	62.9883	85.5177	62.9883	85.5278	62.9883	85.4923	62.9883	85.5037	62.9883	85.4631	62.9883	85.4751	62.9883	85.4307	62.9883	85.4426	62.9883	85.3958	62.9883	85.4072	62.9883	85.3593	62.9883	85.3695	62.9883	85.3219	62.9883	85.3307	62.9883	85.2846	62.9883	85.2918	62.9883	85.2486	62.9883	85.2543	62.9883	85.2152	62.9883	85.2197	62.9883	85.1858	62.9883	85.1891	62.9883	85.1614	62.9883	85.164	62.9883	85.1434	62.9883	85.1451	62.9883	85.1324	62.9883	85.1333	62.9883	85.129
64.4531	85.5446	64.4531	85.5398	64.4531	85.5437	64.4531	85.5293	64.4531	85.5371	64.4531	85.5135	64.4531	85.525	64.4531	85.4928	64.4531	85.5077	64.4531	85.4677	64.4531	85.4857	64.4531	85.4389	64.4531	85.4595	64.4531	85.4071	64.4531	85.4295	64.4531	85.373	64.4531	85.3964	64.4531	85.3374	64.4531	85.3609	64.4531	85.3011	64.4531	85.3236	64.4531	85.2652	64.4531	85.2858	64.4531	85.2309	64.4531	85.2488	64.4531	85.1993	64.4531	85.2141	64.4531	85.1718	64.4531	85.1833	64.4531	85.1494	64.4531	85.1577	64.4531	85.133	64.4531	85.1383	64.4531	85.1234	64.4531	85.126	64.4531	85.1209
67.3828	85.5097	67.3828	85.5041	67.3828	85.5106	67.3828	85.4941	67.3828	85.5068	67.3828	85.4798	67.3828	85.4984	67.3828	85.4615	67.3828	85.4856	67.3828	85.4396	67.3828	85.4687	67.3828	85.4147	67.3828	85.448	67.3828	85.3871	67.3828	85.4239	67.3828	85.3576	67.3828	85.3969	67.3828	85.3267	67.3828	85.3676	67.3828	85.2953	67.3828	85.3365	67.3828	85.2641	67.3828	85.3047	67.3828	85.2343	67.3828	85.273	67.3828	85.207	67.3828	85.2426	67.3828	85.1835	67.3828	85.2147	67.3828	85.1649	67.3828	85.1904	67.3828	85.1524	67.3828	85.1706	67.3828	85.1466	67.3828	85.1562	67.3828	85.148
