"SPL Vertical"
"On-Axis"		"10°"		"-10°"		"20°"		"-20°"		"30°"		"-30°"		"40°"		"-40°"		"50°"		"-50°"		"60°"		"-60°"		"70°"		"-70°"		"80°"		"-80°"		"90°"		"-90°"		"100°"		"-100°"		"110°"		"-110°"		"120°"		"-120°"		"130°"		"-130°"		"140°"		"-140°"		"150°"		"-150°"		"160°"		"-160°"		"170°"		"-170°"		"180°"
"Frequency / Hz"	"Sound Pressure Level / dB (re 20 µPa/V)  [2.83  V @ 1. m]"	"Frequency / Hz"	"Sound Pressure Level / dB (re 20 µPa/V)  [2.83  V @ 1. m]"	"Frequency / Hz"	"Sound Pressure Level / dB (re 20 µPa/V)  [2.83  V @ 1. m]"	"Frequency / Hz"	"Sound Pressure Level / dB (re 20 µPa/V)  [2.83  V @ 1. m]"	"Frequency / Hz"	"Sound Pressure Level / dB (re 20 µPa/V)  [2.83  V @ 1. m]"	"Frequency / Hz"	"Sound Pressure Level / dB (re 20 µPa/V)  [2.83  V @ 1. m]"	"Frequency / Hz"	"Sound Pressure Level / dB (re 20 µPa/V)  [2.83  V @ 1. m]"	"Frequency / Hz"	"Sound Pressure Level / dB (re 20 µPa/V)  [2.83  V @ 1. m]"	"Frequency / Hz"	"Sound Pressure Level / dB (re 20 µPa/V)  [2.83  V @ 1. m]"	"Frequency / Hz"	"Sound Pressure Level / dB (re 20 µPa/V)  [2.83  V @ 1. m]"	"Frequency / Hz"	"Sound Pressure Level / dB (re 20 µPa/V)  [2.83  V @ 1. m]"	"Frequency / Hz"	"Sound Pressure Level / dB (re 20 µPa/V)  [2.83  V @ 1. m]"	"Frequency / Hz"	"Sound Pressure Level / dB (re 20 µPa/V)  [2.83  V @ 1. m]"	"Frequency / Hz"	"Sound Pressure Level / dB (re 20 µPa/V)  [2.83  V @ 1. m]"	"Frequency / Hz"	"Sound Pressure Level / dB (re 20 µPa/V)  [2.83  V @ 1. m]"	"Frequency / Hz"	"Sound Pressure Level / dB (re 20 µPa/V)  [2.83  V @ 1. m]"	"Frequency / Hz"	"Sound Pressure Level / dB (re 20 µPa/V)  [2.83  V @ 1. m]"	"Frequency / Hz"	"Sound Pressure Level / dB (re 20 µPa/V)  [2.83  V @ 1. m]"	"Frequency / Hz"	"Sound Pressure Level / dB (re 20 µPa/V)  [2.83  V @ 1. m]"	"Frequency / Hz"	"Sound Pressure Level / dB (re 20 µPa/V)  [2.83  V @ 1. m]"	"Frequency / Hz"	"Sound Pressure Level / dB (re 20 µPa/V)  [2.83  V @ 1. m]"	"Frequency / Hz"	"Sound Pressure Level / dB (re 20 µPa/V)  [2.83  V @ 1. m]"	"Frequency / Hz"	"Sound Pressure Level / dB (re 20 µPa/V)  [2.83  V @ 1. m]"	"Frequency / Hz"	"Sound Pressure Level / dB (re 20 µPa/V)  [2.83  V @ 1. m]"	"Frequency / Hz"	"Sound Pressure Level / dB (re 20 µPa/V)  [2.83  V @ 1. m]"	"Frequency / Hz"	"Sound Pressure Level / dB (re 20 µPa/V)  [2.83  V @ 1. m]"	"Frequency / Hz"	"Sound Pressure Level / dB (re 20 µPa/V)  [2.83  V @ 1. m]"	"Frequency / Hz"	"Sound Pressure Level / dB (re 20 µPa/V)  [2.83  V @ 1. m]"	"Frequency / Hz"	"Sound Pressure Level / dB (re 20 µPa/V)  [2.83  V @ 1. m]"	"Frequency / Hz"	"Sound Pressure Level / dB (re 20 µPa/V)  [2.83  V @ 1. m]"	"Frequency / Hz"	"Sound Pressure Level / dB (re 20 µPa/V)  [2.83  V @ 1. m]"	"Frequency / Hz"	"Sound Pressure Level / dB (re 20 µPa/V)  [2.83  V @ 1. m]"	"Frequency / Hz"	"Sound Pressure Level / dB (re 20 µPa/V)  [2.83  V @ 1. m]"	"Frequency / Hz"	"Sound Pressure Level / dB (re 20 µPa/V)  [2.83  V @ 1. m]"	"Frequency / Hz"	"Sound Pressure Level / dB (re 20 µPa/V)  [2.83  V @ 1. m]"	"Frequency / Hz"	"Sound Pressure Level / dB (re 20 µPa/V)  [2.83  V @ 1. m]"
20.5078	46.2126	20.5078	46.5369	20.5078	45.9151	20.5078	46.8872	20.5078	45.6502	20.5078	47.266	20.5078	45.4297	20.5078	47.6771	20.5078	45.2737	20.5078	48.1242	20.5078	45.2108	20.5078	48.6096	20.5078	45.2784	20.5078	49.1338	20.5078	45.5172	20.5078	49.6945	20.5078	45.9599	20.5078	50.2867	20.5078	46.6162	20.5078	50.9012	20.5078	47.463	20.5078	51.5237	20.5078	48.4469	20.5078	52.1339	20.5078	49.4975	20.5078	52.7056	20.5078	50.5425	20.5078	53.2074	20.5078	51.5173	20.5078	53.6051	20.5078	52.3692	20.5078	53.865	20.5078	53.0588	20.5078	53.9571	20.5078	53.5598	20.5078	53.8594
21.9727	30.9978	21.9727	32.6946	21.9727	29.413	21.9727	34.3546	21.9727	28.28	21.9727	35.9289	21.9727	28.0739	21.9727	37.409	21.9727	28.9581	21.9727	38.8026	21.9727	30.5725	21.9727	40.1235	21.9727	32.4886	21.9727	41.3881	21.9727	34.4839	21.9727	42.6119	21.9727	36.4823	21.9727	43.8058	21.9727	38.4613	21.9727	44.9723	21.9727	40.4034	21.9727	46.1024	21.9727	42.2812	21.9727	47.1746	21.9727	44.0566	21.9727	48.1563	21.9727	45.6857	21.9727	49.0076	21.9727	47.1242	21.9727	49.6854	21.9727	48.3316	21.9727	50.1481	21.9727	49.2751	21.9727	50.3596	21.9727	49.9322	21.9727	50.2928
23.4375	33.1284	23.4375	34.39	23.4375	31.3797	23.4375	35.2943	23.4375	28.9052	23.4375	35.9199	23.4375	25.1874	23.4375	36.3182	23.4375	18.8698	23.4375	36.5255	23.4375	14.8757	23.4375	36.5744	23.4375	22.2917	23.4375	36.5029	23.4375	26.468	23.4375	36.3667	23.4375	28.9705	23.4375	36.2469	23.4375	30.6084	23.4375	36.2447	23.4375	31.7639	23.4375	36.4458	23.4375	32.6865	23.4375	36.8668	23.4375	33.5611	23.4375	37.4345	23.4375	34.4949	23.4375	38.0225	23.4375	35.496	23.4375	38.5073	23.4375	36.4956	23.4375	38.7981	23.4375	37.3992	23.4375	38.8413	23.4375	38.1244	23.4375	38.6151
24.9023	37.0776	24.9023	37.6684	24.9023	36.6893	24.9023	38.2996	24.9023	36.6849	24.9023	38.8757	24.9023	37.1383	24.9023	39.3542	24.9023	37.9411	24.9023	39.7226	24.9023	38.8909	24.9023	39.9825	24.9023	39.8133	24.9023	40.1416	24.9023	40.6006	24.9023	40.2093	24.9023	41.1959	24.9023	40.1943	24.9023	41.5714	24.9023	40.103	24.9023	41.7139	24.9023	39.938	24.9023	41.6185	24.9023	39.698	24.9023	41.2878	24.9023	39.3791	24.9023	40.7354	24.9023	38.9799	24.9023	39.9961	24.9023	38.5132	24.9023	39.1453	24.9023	38.0267	24.9023	38.3198	24.9023	37.6271	24.9023	37.7105	24.9023	37.4764
26.3672	42.7638	26.3672	42.254	26.3672	43.409	26.3672	41.8918	26.3672	44.1538	26.3672	41.6637	26.3672	44.9489	26.3672	41.5392	26.3672	45.7431	26.3672	41.4831	26.3672	46.4923	26.3672	41.4645	26.3672	47.1612	26.3672	41.4623	26.3672	47.7233	26.3672	41.4657	26.3672	48.1592	26.3672	41.4731	26.3672	48.4543	26.3672	41.4907	26.3672	48.5982	26.3672	41.531	26.3672	48.5839	26.3672	41.6136	26.3672	48.4074	26.3672	41.7652	26.3672	48.0685	26.3672	42.0191	26.3672	47.5721	26.3672	42.4095	26.3672	46.9312	26.3672	42.958	26.3672	46.1706	26.3672	43.6585	26.3672	45.3312	26.3672	44.471
27.832	49.7731	27.832	49.5439	27.832	50.0514	27.832	49.364	27.832	50.3733	27.832	49.2289	27.832	50.7273	27.832	49.1314	27.832	51.0975	27.832	49.0633	27.832	51.4649	27.832	49.0174	27.832	51.8089	27.832	48.9886	27.832	52.1092	27.832	48.9745	27.832	52.3469	27.832	48.9755	27.832	52.5061	27.832	48.9942	27.832	52.5749	27.832	49.0347	27.832	52.5463	27.832	49.1024	27.832	52.4194	27.832	49.2029	27.832	52.1995	27.832	49.3418	27.832	51.8998	27.832	49.5248	27.832	51.5404	27.832	49.7569	27.832	51.1478	27.832	50.0411	27.832	50.7508	27.832	50.3756
29.2969	52.1074	29.2969	51.9114	29.2969	52.3604	29.2969	51.7654	29.2969	52.672	29.2969	51.6605	29.2969	53.0367	29.2969	51.5879	29.2969	53.441	29.2969	51.5405	29.2969	53.8645	29.2969	51.514	29.2969	54.2831	29.2969	51.5073	29.2969	54.6718	29.2969	51.5218	29.2969	55.0075	29.2969	51.5612	29.2969	55.2712	29.2969	51.6311	29.2969	55.4487	29.2969	51.7376	29.2969	55.5309	29.2969	51.8867	29.2969	55.5143	29.2969	52.0837	29.2969	55.4001	29.2969	52.3316	29.2969	55.195	29.2969	52.6304	29.2969	54.9106	29.2969	52.976	29.2969	54.5633	29.2969	53.3591	29.2969	54.1738	29.2969	53.7649
30.7617	55.8242	30.7617	55.6195	30.7617	56.0822	30.7617	55.4657	30.7617	56.3913	30.7617	55.3575	30.7617	56.7437	30.7617	55.2884	30.7617	57.1257	30.7617	55.2526	30.7617	57.5195	30.7617	55.246	30.7617	57.9048	30.7617	55.2667	30.7617	58.2612	30.7617	55.3147	30.7617	58.5702	30.7617	55.3919	30.7617	58.8164	30.7617	55.5016	30.7617	58.9887	30.7617	55.6472	30.7617	59.0798	30.7617	55.8318	30.7617	59.087	30.7617	56.0572	30.7617	59.0112	30.7617	56.3233	30.7617	58.8575	30.7617	56.6267	30.7617	58.6341	30.7617	56.9609	30.7617	58.3527	30.7617	57.3154	30.7617	58.028	30.7617	57.6764
32.2266	58.5126	32.2266	58.3092	32.2266	58.7675	32.2266	58.1559	32.2266	59.0708	32.2266	58.0485	32.2266	59.4146	32.2266	57.9815	32.2266	59.7855	32.2266	57.9497	32.2266	60.1665	32.2266	57.9492	32.2266	60.5384	32.2266	57.9776	32.2266	60.8821	32.2266	58.0346	32.2266	61.1802	32.2266	58.1212	32.2266	61.4183	32.2266	58.2396	32.2266	61.5859	32.2266	58.3923	32.2266	61.6766	32.2266	58.5817	32.2266	61.6878	32.2266	58.8088	32.2266	61.6208	32.2266	59.0728	32.2266	61.4802	32.2266	59.37	32.2266	61.2737	32.2266	59.6936	32.2266	61.0118	32.2266	60.0334	32.2266	60.7078	32.2266	60.3765
33.6914	61.2692	33.6914	61.0519	33.6914	61.5317	33.6914	60.8801	33.6914	61.8354	33.6914	60.7517	33.6914	62.1721	33.6914	60.6631	33.6914	62.5298	33.6914	60.6107	33.6914	62.8929	33.6914	60.5915	33.6914	63.2444	33.6914	60.6037	33.6914	63.567	33.6914	60.6473	33.6914	63.8449	33.6914	60.7233	33.6914	64.0651	33.6914	60.8338	33.6914	64.2177	33.6914	60.9815	33.6914	64.2966	33.6914	61.1684	33.6914	64.2993	33.6914	61.3953	33.6914	64.2266	33.6914	61.6609	33.6914	64.0826	33.6914	61.9608	33.6914	63.8745	33.6914	62.2874	33.6914	63.6119	33.6914	62.63	33.6914	63.3074	33.6914	62.9749
35.1562	63.9039	35.1562	63.6771	35.1562	64.1697	35.1562	63.4915	35.1562	64.4697	35.1562	63.3465	35.1562	64.7954	35.1562	63.2406	35.1562	65.1352	35.1562	63.1713	35.1562	65.4749	35.1562	63.1366	35.1562	65.799	35.1562	63.1353	35.1562	66.0921	35.1562	63.167	35.1562	66.34	35.1562	63.2322	35.1562	66.5308	35.1562	63.3321	35.1562	66.6558	35.1562	63.4683	35.1562	66.7098	35.1562	63.6417	35.1562	66.6908	35.1562	63.8526	35.1562	66.6003	35.1562	64.0996	35.1562	66.4431	35.1562	64.3791	35.1562	66.2269	35.1562	64.6852	35.1562	65.962	35.1562	65.0089	35.1562	65.6613	35.1562	65.3388
36.6211	66.6483	36.6211	66.4157	36.6211	66.9126	36.6211	66.2175	36.6211	67.2033	36.6211	66.0547	36.6211	67.5127	36.6211	65.9271	36.6211	67.8304	36.6211	65.8339	36.6211	68.1442	36.6211	65.7739	36.6211	68.4403	36.6211	65.7468	36.6211	68.7051	36.6211	65.7527	36.6211	68.9257	36.6211	65.7923	36.6211	69.0913	36.6211	65.8671	36.6211	69.1935	36.6211	65.9789	36.6211	69.227	36.6211	66.1294	36.6211	69.1897	36.6211	66.3194	36.6211	69.0829	36.6211	66.5488	36.6211	68.9108	36.6211	66.815	36.6211	68.6812	36.6211	67.1128	36.6211	68.4046	36.6211	67.4336	36.6211	68.0944	36.6211	67.7656
38.0859	69.447	38.0859	69.2554	38.0859	69.6672	38.0859	69.0943	38.0859	69.9123	38.0859	68.9639	38.0859	70.1762	38.0859	68.864	38.0859	70.4508	38.0859	68.7936	38.0859	70.7257	38.0859	68.752	38.0859	70.989	38.0859	68.7385	38.0859	71.2286	38.0859	68.7532	38.0859	71.4328	38.0859	68.7968	38.0859	71.5912	38.0859	68.8705	38.0859	71.6959	38.0859	68.9756	38.0859	71.7416	38.0859	69.1135	38.0859	71.7257	38.0859	69.2852	38.0859	71.6488	38.0859	69.4902	38.0859	71.514	38.0859	69.7262	38.0859	71.3274	38.0859	69.9881	38.0859	71.0976	38.0859	70.2679	38.0859	70.8358	38.0859	70.5547
39.5508	71.2335	39.5508	71.0496	39.5508	71.4468	39.5508	70.8973	39.5508	71.6854	39.5508	70.7771	39.5508	71.9429	39.5508	70.6887	39.5508	72.2107	39.5508	70.631	39.5508	72.4783	39.5508	70.6029	39.5508	72.7339	39.5508	70.6035	39.5508	72.9657	39.5508	70.6323	39.5508	73.1622	39.5508	70.6891	39.5508	73.3138	39.5508	70.7741	39.5508	73.4133	39.5508	70.8876	39.5508	73.4562	39.5508	71.0299	39.5508	73.441	39.5508	71.2004	39.5508	73.369	39.5508	71.3979	39.5508	73.2442	39.5508	71.6195	39.5508	73.0732	39.5508	71.8609	39.5508	72.8643	39.5508	72.1153	39.5508	72.6277	39.5508	72.3743
41.0156	73.1477	41.0156	72.9554	41.0156	73.3664	41.0156	72.7928	41.0156	73.6065	41.0156	72.6614	41.0156	73.8609	41.0156	72.5617	41.0156	74.121	41.0156	72.4934	41.0156	74.3763	41.0156	72.4555	41.0156	74.6157	41.0156	72.4469	41.0156	74.8279	41.0156	72.4669	41.0156	75.0025	41.0156	72.5148	41.0156	75.1309	41.0156	72.59	41.0156	75.2068	41.0156	72.6924	41.0156	75.2265	41.0156	72.8217	41.0156	75.1895	41.0156	72.9773	41.0156	75.0981	41.0156	73.1582	41.0156	74.9575	41.0156	73.3625	41.0156	74.7749	41.0156	73.587	41.0156	74.5598	41.0156	73.8269	41.0156	74.3229	41.0156	74.0751
42.4805	74.9583	42.4805	74.7645	42.4805	75.1746	42.4805	74.5966	42.4805	75.4083	42.4805	74.4565	42.4805	75.6528	42.4805	74.3452	42.4805	75.8996	42.4805	74.2628	42.4805	76.1391	42.4805	74.2088	42.4805	76.3606	42.4805	74.1827	42.4805	76.5535	42.4805	74.1838	42.4805	76.7078	42.4805	74.2118	42.4805	76.8153	42.4805	74.2663	42.4805	76.8698	42.4805	74.3473	42.4805	76.8681	42.4805	74.4548	42.4805	76.81	42.4805	74.5889	42.4805	76.6984	42.4805	74.7493	42.4805	76.5391	42.4805	74.9354	42.4805	76.3404	42.4805	75.1451	42.4805	76.113	42.4805	75.375	42.4805	75.8685	42.4805	75.619
43.9453	76.9693	43.9453	76.7783	43.9453	77.1761	43.9453	76.6066	43.9453	77.3939	43.9453	76.4562	43.9453	77.6163	43.9453	76.3284	43.9453	77.8354	43.9453	76.2235	43.9453	78.0424	43.9453	76.1418	43.9453	78.2277	43.9453	76.0831	43.9453	78.3815	43.9453	76.0476	43.9453	78.4952	43.9453	76.0355	43.9453	78.5614	43.9453	76.0474	43.9453	78.575	43.9453	76.0843	43.9453	78.5335	43.9453	76.1475	43.9453	78.4376	43.9453	76.2387	43.9453	78.2912	43.9453	76.3593	43.9453	78.1015	43.9453	76.5103	43.9453	77.8784	43.9453	76.6916	43.9453	77.634	43.9453	76.9009	43.9453	77.3815	43.9453	77.1335
45.4102	78.6326	45.4102	78.4627	45.4102	78.8164	45.4102	78.3096	45.4102	79.0102	45.4102	78.1748	45.4102	79.2085	45.4102	78.0591	45.4102	79.4047	45.4102	77.963	45.4102	79.5908	45.4102	77.8867	45.4102	79.7581	45.4102	77.8304	45.4102	79.8978	45.4102	77.7945	45.4102	80.0017	45.4102	77.7798	45.4102	80.0629	45.4102	77.7874	45.4102	80.0765	45.4102	77.8187	45.4102	80.0401	45.4102	77.8751	45.4102	79.9545	45.4102	77.9582	45.4102	79.8232	45.4102	78.0692	45.4102	79.6528	45.4102	78.2086	45.4102	79.4522	45.4102	78.3755	45.4102	79.2321	45.4102	78.5673	45.4102	79.0041	45.4102	78.7793
46.875	80.0237	46.875	79.851	46.875	80.2088	46.875	79.6943	46.875	80.4019	46.875	79.5558	46.875	80.5973	46.875	79.4371	46.875	80.7884	46.875	79.3393	46.875	80.9677	46.875	79.2629	46.875	81.1268	46.875	79.2081	46.875	81.2577	46.875	79.1754	46.875	81.3528	46.875	79.165	46.875	81.4057	46.875	79.1774	46.875	81.4123	46.875	79.2133	46.875	81.3708	46.875	79.2734	46.875	81.2825	46.875	79.3585	46.875	81.1515	46.875	79.4691	46.875	80.9844	46.875	79.6051	46.875	80.7902	46.875	79.7656	46.875	80.5793	46.875	79.9483	46.875	80.3624	46.875	80.1493
48.3398	81.1876	48.3398	81.0135	48.3398	81.373	48.3398	80.8545	48.3398	81.5651	48.3398	80.7133	48.3398	81.7582	48.3398	80.5918	48.3398	81.9457	48.3398	80.4914	48.3398	82.1199	48.3398	80.413	48.3398	82.273	48.3398	80.3572	48.3398	82.397	48.3398	80.3241	48.3398	82.4847	48.3398	80.314	48.3398	82.5304	48.3398	80.3271	48.3398	82.5301	48.3398	80.3636	48.3398	82.4828	48.3398	80.4237	48.3398	82.3901	48.3398	80.5078	48.3398	82.2564	48.3398	80.616	48.3398	82.0888	48.3398	80.7479	48.3398	81.8964	48.3398	80.9028	48.3398	81.6895	48.3398	81.0787	48.3398	81.4784	48.3398	81.2723
51.2695	83.1515	51.2695	82.9818	51.2695	83.3302	51.2695	82.8252	51.2695	83.5129	51.2695	82.6853	51.2695	83.6938	51.2695	82.5645	51.2695	83.8663	51.2695	82.465	51.2695	84.0236	51.2695	82.3881	51.2695	84.1584	51.2695	82.3345	51.2695	84.264	51.2695	82.3047	51.2695	84.3343	51.2695	82.2984	51.2695	84.3647	51.2695	82.3153	51.2695	84.3527	51.2695	82.3546	51.2695	84.2981	51.2695	82.4154	51.2695	84.2033	51.2695	82.4969	51.2695	84.0735	51.2695	82.5981	51.2695	83.9159	51.2695	82.7184	51.2695	83.739	51.2695	82.8568	51.2695	83.5523	51.2695	83.0122	51.2695	83.3643	51.2695	83.1825
52.7344	83.9015	52.7344	83.7388	52.7344	84.0695	52.7344	83.5852	52.7344	84.2382	52.7344	83.444	52.7344	84.4022	52.7344	83.3179	52.7344	84.5558	52.7344	83.2093	52.7344	84.6926	52.7344	83.12	52.7344	84.8063	52.7344	83.0514	52.7344	84.8907	52.7344	83.0045	52.7344	84.9405	52.7344	82.9799	52.7344	84.9517	52.7344	82.9781	52.7344	84.9225	52.7344	82.9988	52.7344	84.8531	52.7344	83.042	52.7344	84.7468	52.7344	83.1071	52.7344	84.609	52.7344	83.1935	52.7344	84.4473	52.7344	83.3004	52.7344	84.2703	52.7344	83.4268	52.7344	84.0869	52.7344	83.5712	52.7344	83.9052	52.7344	83.7317
54.1992	84.4298	54.1992	84.2739	54.1992	84.5881	54.1992	84.1242	54.1992	84.7447	54.1992	83.9838	54.1992	84.8948	54.1992	83.8557	54.1992	85.0329	54.1992	83.7422	54.1992	85.1532	54.1992	83.6454	54.1992	85.2499	54.1992	83.5671	54.1992	85.3171	54.1992	83.5087	54.1992	85.3498	54.1992	83.4709	54.1992	85.3444	54.1992	83.4544	54.1992	85.2993	54.1992	83.4594	54.1992	85.2154	54.1992	83.4858	54.1992	85.0962	54.1992	83.5335	54.1992	84.948	54.1992	83.6021	54.1992	84.779	54.1992	83.6913	54.1992	84.5986	54.1992	83.8005	54.1992	84.4163	54.1992	83.9292	54.1992	84.2402	54.1992	84.0765
55.6641	84.7706	55.6641	84.6138	55.6641	84.9291	55.6641	84.4624	55.6641	85.0854	55.6641	84.3193	55.6641	85.2348	55.6641	84.1872	55.6641	85.3719	55.6641	84.0685	55.6641	85.4908	55.6641	83.9654	55.6641	85.5856	55.6641	83.8796	55.6641	85.6501	55.6641	83.8127	55.6641	85.6793	55.6641	83.7659	55.6641	85.6692	55.6641	83.7399	55.6641	85.6179	55.6641	83.7351	55.6641	85.5262	55.6641	83.7518	55.6641	85.3975	55.6641	83.7901	55.6641	85.2383	55.6641	83.8502	55.6641	85.0571	55.6641	83.9324	55.6641	84.8643	55.6641	84.0372	55.6641	84.6703	55.6641	84.1648	55.6641	84.4847	55.6641	84.3147
58.5938	85.3175	58.5938	85.1649	58.5938	85.4737	58.5938	85.02	58.5938	85.6285	58.5938	84.8865	58.5938	85.7768	58.5938	84.7674	58.5938	85.9128	58.5938	84.665	58.5938	86.0308	58.5938	84.581	58.5938	86.1251	58.5938	84.5166	58.5938	86.1904	58.5938	84.4724	58.5938	86.2226	58.5938	84.4486	58.5938	86.2189	58.5938	84.445	58.5938	86.1784	58.5938	84.4611	58.5938	86.1026	58.5938	84.4962	58.5938	85.9952	58.5938	84.5497	58.5938	85.8618	58.5938	84.621	58.5938	85.71	58.5938	84.7095	58.5938	85.5479	58.5938	84.8149	58.5938	85.3834	58.5938	84.9365	58.5938	85.2235	58.5938	85.0734
60.0586	85.4881	60.0586	85.3345	60.0586	85.6434	60.0586	85.1873	60.0586	85.7957	60.0586	85.0507	60.0586	85.9393	60.0586	84.9279	60.0586	86.069	60.0586	84.8219	60.0586	86.1792	60.0586	84.7346	60.0586	86.2647	60.0586	84.6677	60.0586	86.3209	60.0586	84.6218	60.0586	86.3442	60.0586	84.5971	60.0586	86.3325	60.0586	84.5933	60.0586	86.2853	60.0586	84.6096	60.0586	86.2047	60.0586	84.6451	60.0586	86.0946	60.0586	84.6985	60.0586	85.9612	60.0586	84.7689	60.0586	85.8119	60.0586	84.8552	60.0586	85.6546	60.0586	84.9566	60.0586	85.4968	60.0586	85.0725	60.0586	85.3446	60.0586	85.2023
62.9883	85.5695	62.9883	85.4255	62.9883	85.7127	62.9883	85.2848	62.9883	85.8504	62.9883	85.1514	62.9883	85.9777	62.9883	85.0289	62.9883	86.0898	62.9883	84.9201	62.9883	86.1819	62.9883	84.8274	62.9883	86.2493	62.9883	84.7525	62.9883	86.288	62.9883	84.6966	62.9883	86.2948	62.9883	84.6602	62.9883	86.268	62.9883	84.6432	62.9883	86.2077	62.9883	84.6453	62.9883	86.1161	62.9883	84.6656	62.9883	85.9979	62.9883	84.7034	62.9883	85.8595	62.9883	84.7576	62.9883	85.7086	62.9883	84.8276	62.9883	85.5537	62.9883	84.9129	62.9883	85.4019	62.9883	85.0134	62.9883	85.2591	62.9883	85.129
64.4531	85.5446	64.4531	85.3991	64.4531	85.6891	64.4531	85.2568	64.4531	85.8281	64.4531	85.1214	64.4531	85.957	64.4531	84.9966	64.4531	86.0709	64.4531	84.8854	64.4531	86.165	64.4531	84.7904	64.4531	86.2346	64.4531	84.7136	64.4531	86.2755	64.4531	84.6564	64.4531	86.2846	64.4531	84.6195	64.4531	86.26	64.4531	84.6031	64.4531	86.2019	64.4531	84.6067	64.4531	86.1125	64.4531	84.6297	64.4531	85.9961	64.4531	84.671	64.4531	85.859	64.4531	84.7296	64.4531	85.7089	64.4531	84.8046	64.4531	85.5536	64.4531	84.8951	64.4531	85.4003	64.4531	85.0007	64.4531	85.2549	64.4531	85.1209
67.3828	85.5097	67.3828	85.3639	67.3828	85.6545	67.3828	85.2215	67.3828	85.7936	67.3828	85.0867	67.3828	85.9223	67.3828	84.9633	67.3828	86.0357	67.3828	84.8546	67.3828	86.129	67.3828	84.7632	67.3828	86.1978	67.3828	84.6912	67.3828	86.2383	67.3828	84.6397	67.3828	86.2477	67.3828	84.6092	67.3828	86.2248	67.3828	84.5996	67.3828	86.1702	67.3828	84.61	67.3828	86.0861	67.3828	84.6394	67.3828	85.9771	67.3828	84.6865	67.3828	85.849	67.3828	84.7501	67.3828	85.7086	67.3828	84.829	67.3828	85.5628	67.3828	84.9222	67.3828	85.4177	67.3828	85.0288	67.3828	85.2783	67.3828	85.148
