"SPL Horizontal"																																																																							
"On-Axis"		"10°"		"-10°"		"20°"		"-20°"		"30°"		"-30°"		"40°"		"-40°"		"50°"		"-50°"		"60°"		"-60°"		"70°"		"-70°"		"80°"		"-80°"		"90°"		"-90°"		"100°"		"-100°"		"110°"		"-110°"		"120°"		"-120°"		"130°"		"-130°"		"140°"		"-140°"		"150°"		"-150°"		"160°"		"-160°"		"170°"		"-170°"		"180°"	
"Frequency [Hz]"	"Sound Pessure Level [dB]  / [2.83V 1m] "	"Frequency [Hz]"	"Sound Pessure Level [dB]  / [2.83V 1m] "	"Frequency [Hz]"	"Sound Pessure Level [dB]  / [2.83V 1m] "	"Frequency [Hz]"	"Sound Pessure Level [dB]  / [2.83V 1m] "	"Frequency [Hz]"	"Sound Pessure Level [dB]  / [2.83V 1m] "	"Frequency [Hz]"	"Sound Pessure Level [dB]  / [2.83V 1m] "	"Frequency [Hz]"	"Sound Pessure Level [dB]  / [2.83V 1m] "	"Frequency [Hz]"	"Sound Pessure Level [dB]  / [2.83V 1m] "	"Frequency [Hz]"	"Sound Pessure Level [dB]  / [2.83V 1m] "	"Frequency [Hz]"	"Sound Pessure Level [dB]  / [2.83V 1m] "	"Frequency [Hz]"	"Sound Pessure Level [dB]  / [2.83V 1m] "	"Frequency [Hz]"	"Sound Pessure Level [dB]  / [2.83V 1m] "	"Frequency [Hz]"	"Sound Pessure Level [dB]  / [2.83V 1m] "	"Frequency [Hz]"	"Sound Pessure Level [dB]  / [2.83V 1m] "	"Frequency [Hz]"	"Sound Pessure Level [dB]  / [2.83V 1m] "	"Frequency [Hz]"	"Sound Pessure Level [dB]  / [2.83V 1m] "	"Frequency [Hz]"	"Sound Pessure Level [dB]  / [2.83V 1m] "	"Frequency [Hz]"	"Sound Pessure Level [dB]  / [2.83V 1m] "	"Frequency [Hz]"	"Sound Pessure Level [dB]  / [2.83V 1m] "	"Frequency [Hz]"	"Sound Pessure Level [dB]  / [2.83V 1m] "	"Frequency [Hz]"	"Sound Pessure Level [dB]  / [2.83V 1m] "	"Frequency [Hz]"	"Sound Pessure Level [dB]  / [2.83V 1m] "	"Frequency [Hz]"	"Sound Pessure Level [dB]  / [2.83V 1m] "	"Frequency [Hz]"	"Sound Pessure Level [dB]  / [2.83V 1m] "	"Frequency [Hz]"	"Sound Pessure Level [dB]  / [2.83V 1m] "	"Frequency [Hz]"	"Sound Pessure Level [dB]  / [2.83V 1m] "	"Frequency [Hz]"	"Sound Pessure Level [dB]  / [2.83V 1m] "	"Frequency [Hz]"	"Sound Pessure Level [dB]  / [2.83V 1m] "	"Frequency [Hz]"	"Sound Pessure Level [dB]  / [2.83V 1m] "	"Frequency [Hz]"	"Sound Pessure Level [dB]  / [2.83V 1m] "	"Frequency [Hz]"	"Sound Pessure Level [dB]  / [2.83V 1m] "	"Frequency [Hz]"	"Sound Pessure Level [dB]  / [2.83V 1m] "	"Frequency [Hz]"	"Sound Pessure Level [dB]  / [2.83V 1m] "	"Frequency [Hz]"	"Sound Pessure Level [dB]  / [2.83V 1m] "	"Frequency [Hz]"	"Sound Pessure Level [dB]  / [2.83V 1m] "	"Frequency [Hz]"	"Sound Pessure Level [dB]  / [2.83V 1m] "
20.5078	43.9761	20.5078	43.9725	20.5078	43.9479	20.5078	43.9372	20.5078	43.8882	20.5078	43.8699	20.5078	43.797	20.5078	43.7708	20.5078	43.6747	20.5078	43.6401	20.5078	43.5219	20.5078	43.4786	20.5078	43.3397	20.5078	43.2879	20.5078	43.1305	20.5078	43.0705	20.5078	42.8976	20.5078	42.8304	20.5078	42.646	20.5078	42.5733	20.5078	42.3828	20.5078	42.3069	20.5078	42.1166	20.5078	42.0404	20.5078	41.8579	20.5078	41.7848	20.5078	41.6179	20.5078	41.5516	20.5078	41.4079	20.5078	41.3521	20.5078	41.2382	20.5078	41.196	20.5078	41.1172	20.5078	41.0909	20.5078	41.0507	20.5078	41.0418
21.2402	49.5007	21.2402	49.5262	21.2402	49.4665	21.2402	49.5427	21.2402	49.4245	21.2402	49.5496	21.2402	49.3756	21.2402	49.5467	21.2402	49.3207	21.2402	49.5337	21.2402	49.2612	21.2402	49.5109	21.2402	49.1987	21.2402	49.4785	21.2402	49.1351	21.2402	49.4372	21.2402	49.0726	21.2402	49.3881	21.2402	49.0135	21.2402	49.3325	21.2402	48.96	21.2402	49.2722	21.2402	48.9143	21.2402	49.2092	21.2402	48.8782	21.2402	49.1457	21.2402	48.8528	21.2402	49.084	21.2402	48.8386	21.2402	49.0261	21.2402	48.8359	21.2402	48.9738	21.2402	48.8441	21.2402	48.9284	21.2402	48.8628	21.2402	48.8911
21.9727	49.3343	21.9727	49.3312	21.9727	49.3251	21.9727	49.3156	21.9727	49.3038	21.9727	49.2875	21.9727	49.2706	21.9727	49.2467	21.9727	49.2258	21.9727	49.1933	21.9727	49.1697	21.9727	49.1277	21.9727	49.103	21.9727	49.0505	21.9727	49.0266	21.9727	48.9628	21.9727	48.9418	21.9727	48.8666	21.9727	48.8502	21.9727	48.7642	21.9727	48.7541	21.9727	48.6589	21.9727	48.6559	21.9727	48.5548	21.9727	48.5589	21.9727	48.4565	21.9727	48.4665	21.9727	48.3687	21.9727	48.3824	21.9727	48.296	21.9727	48.3104	21.9727	48.2424	21.9727	48.2543	21.9727	48.2108	21.9727	48.2175	21.9727	48.2025
22.7051	49.2888	22.7051	49.2772	22.7051	49.2838	22.7051	49.2488	22.7051	49.2623	22.7051	49.2039	22.7051	49.2247	22.7051	49.1424	22.7051	49.1714	22.7051	49.065	22.7051	49.103	22.7051	48.9724	22.7051	49.0205	22.7051	48.8658	22.7051	48.9249	22.7051	48.7469	22.7051	48.8175	22.7051	48.6182	22.7051	48.7003	22.7051	48.4829	22.7051	48.5754	22.7051	48.3453	22.7051	48.4457	22.7051	48.2105	22.7051	48.3148	22.7051	48.0844	22.7051	48.1872	22.7051	47.9733	22.7051	48.0679	22.7051	47.8832	22.7051	47.9626	22.7051	47.8197	22.7051	47.8771	22.7051	47.7866	22.7051	47.8167	22.7051	47.7857
23.4375	50.3139	23.4375	50.3093	23.4375	50.3017	23.4375	50.2875	23.4375	50.273	23.4375	50.2484	23.4375	50.2279	23.4375	50.1918	23.4375	50.1668	23.4375	50.1178	23.4375	50.0903	23.4375	50.0265	23.4375	49.9988	23.4375	49.9188	23.4375	49.8933	23.4375	49.796	23.4375	49.7751	23.4375	49.66	23.4375	49.6459	23.4375	49.5142	23.4375	49.5083	23.4375	49.3626	23.4375	49.3656	23.4375	49.2109	23.4375	49.2221	23.4375	49.0657	23.4375	49.0832	23.4375	48.9341	23.4375	48.9549	23.4375	48.8235	23.4375	48.8439	23.4375	48.7407	23.4375	48.757	23.4375	48.691	23.4375	48.7	23.4375	48.6772
24.1699	51.2632	24.1699	51.2535	24.1699	51.2587	24.1699	51.2298	24.1699	51.2402	24.1699	51.1919	24.1699	51.2075	24.1699	51.1401	24.1699	51.1609	24.1699	51.0746	24.1699	51.1005	24.1699	50.9958	24.1699	51.0268	24.1699	50.9046	24.1699	50.9404	24.1699	50.8021	24.1699	50.8425	24.1699	50.6904	24.1699	50.7348	24.1699	50.572	24.1699	50.6195	24.1699	50.4504	24.1699	50.4998	24.1699	50.3299	24.1699	50.3794	24.1699	50.2157	24.1699	50.2629	24.1699	50.1132	24.1699	50.1556	24.1699	50.028	24.1699	50.0629	24.1699	49.9651	24.1699	49.99	24.1699	49.9285	24.1699	49.9415	24.1699	49.9205
25.6348	52.1268	25.6348	52.1266	25.6348	52.1115	25.6348	52.1109	25.6348	52.0808	25.6348	52.0795	25.6348	52.0348	25.6348	52.0326	25.6348	51.9738	25.6348	51.9703	25.6348	51.8983	25.6348	51.8929	25.6348	51.8088	25.6348	51.8012	25.6348	51.7064	25.6348	51.6964	25.6348	51.5927	25.6348	51.5802	25.6348	51.4701	25.6348	51.455	25.6348	51.3415	25.6348	51.3243	25.6348	51.2108	25.6348	51.1922	25.6348	51.0827	25.6348	51.0638	25.6348	50.9627	25.6348	50.9446	25.6348	50.8565	25.6348	50.8406	25.6348	50.7698	25.6348	50.7574	25.6348	50.7078	25.6348	50.6998	25.6348	50.6743	25.6348	50.6716
26.3672	52.6566	26.3672	52.6563	26.3672	52.6409	26.3672	52.6399	26.3672	52.6092	26.3672	52.6073	26.3672	52.5617	26.3672	52.5588	26.3672	52.4985	26.3672	52.4944	26.3672	52.4202	26.3672	52.4145	26.3672	52.3272	26.3672	52.3198	26.3672	52.2207	26.3672	52.2114	26.3672	52.1023	26.3672	52.0911	26.3672	51.9742	26.3672	51.9614	26.3672	51.8395	26.3672	51.8256	26.3672	51.7024	26.3672	51.6878	26.3672	51.5677	26.3672	51.5534	26.3672	51.4413	26.3672	51.428	26.3672	51.3294	26.3672	51.3179	26.3672	51.2382	26.3672	51.2293	26.3672	51.1731	26.3672	51.1676	26.3672	51.1385	26.3672	51.1366
27.0996	52.4274	27.0996	52.4273	27.0996	52.4088	27.0996	52.4083	27.0996	52.3715	27.0996	52.3702	27.0996	52.3156	27.0996	52.313	27.0996	52.2413	27.0996	52.2366	27.0996	52.1488	27.0996	52.1411	27.0996	52.0387	27.0996	52.0271	27.0996	51.9119	27.0996	51.8957	27.0996	51.7701	27.0996	51.7488	27.0996	51.6158	27.0996	51.5892	27.0996	51.4525	27.0996	51.4211	27.0996	51.2848	27.0996	51.2498	27.0996	51.1188	27.0996	51.082	27.0996	50.9614	27.0996	50.9254	27.0996	50.8206	27.0996	50.7882	27.0996	50.7042	27.0996	50.6784	27.0996	50.6197	27.0996	50.603	27.0996	50.5728	27.0996	50.567
27.832	53.5692	27.832	53.5679	27.832	53.5548	27.832	53.5506	27.832	53.5245	27.832	53.5175	27.832	53.4784	27.832	53.4684	27.832	53.4166	27.832	53.4032	27.832	53.3393	27.832	53.3224	27.832	53.2469	27.832	53.2262	27.832	53.1404	27.832	53.1158	27.832	53.021	27.832	52.9927	27.832	52.8911	27.832	52.8595	27.832	52.7537	27.832	52.7195	27.832	52.6128	27.832	52.5773	27.832	52.4737	27.832	52.4384	27.832	52.3421	27.832	52.309	27.832	52.2246	27.832	52.1959	27.832	52.1278	27.832	52.1055	27.832	52.0577	27.832	52.0435	27.832	52.0188	27.832	52.0139
29.2969	54.154	29.2969	54.1371	29.2969	54.1541	29.2969	54.1033	29.2969	54.1371	29.2969	54.0528	29.2969	54.1033	29.2969	53.9859	29.2969	54.0525	29.2969	53.9032	29.2969	53.9853	29.2969	53.8055	29.2969	53.9019	29.2969	53.6941	29.2969	53.8034	29.2969	53.571	29.2969	53.691	29.2969	53.4388	29.2969	53.5667	29.2969	53.301	29.2969	53.4333	29.2969	53.1618	29.2969	53.2943	29.2969	53.0265	29.2969	53.1543	29.2969	52.9006	29.2969	53.0184	29.2969	52.7901	29.2969	52.8926	29.2969	52.7006	29.2969	52.7828	29.2969	52.6373	29.2969	52.6948	29.2969	52.604	29.2969	52.6335	29.2969	52.6027
30.0293	54.5502	30.0293	54.5346	30.0293	54.5465	30.0293	54.5	30.0293	54.5235	30.0293	54.4465	30.0293	54.4813	30.0293	54.3744	30.0293	54.4199	30.0293	54.2844	30.0293	54.3395	30.0293	54.1774	30.0293	54.2409	30.0293	54.0547	30.0293	54.1247	30.0293	53.9184	30.0293	53.9927	30.0293	53.7711	30.0293	53.8471	30.0293	53.6163	30.0293	53.6913	30.0293	53.4585	30.0293	53.5295	30.0293	53.3028	30.0293	53.3674	30.0293	53.1554	30.0293	53.2114	30.0293	53.0229	30.0293	53.0688	30.0293	52.912	30.0293	52.9468	30.0293	52.8291	30.0293	52.8524	30.0293	52.7794	30.0293	52.791	30.0293	52.7663
31.4941	56.2197	31.4941	56.2144	31.4941	56.2077	31.4941	56.1918	31.4941	56.1784	31.4941	56.1522	31.4941	56.1318	31.4941	56.0955	31.4941	56.068	31.4941	56.0221	31.4941	55.9871	31.4941	55.9325	31.4941	55.8898	31.4941	55.8275	31.4941	55.7771	31.4941	55.7085	31.4941	55.6506	31.4941	55.5775	31.4941	55.5128	31.4941	55.4372	31.4941	55.367	31.4941	55.2915	31.4941	55.2178	31.4941	55.1449	31.4941	55.0705	31.4941	55.003	31.4941	54.9315	31.4941	54.872	31.4941	54.8074	31.4941	54.7584	31.4941	54.7051	31.4941	54.6686	31.4941	54.6304	31.4941	54.6079	31.4941	54.588	31.4941	54.5804
32.2266	56.7084	32.2266	56.6976	32.2266	56.7034	32.2266	56.6708	32.2266	56.6824	32.2266	56.6282	32.2266	56.6454	32.2266	56.5698	32.2266	56.5927	32.2266	56.4962	32.2266	56.5244	32.2266	56.4077	32.2266	56.441	32.2266	56.3054	32.2266	56.3434	32.2266	56.1909	32.2266	56.233	32.2266	56.0663	32.2266	56.1118	32.2266	55.9347	32.2266	55.9825	32.2266	55.8001	32.2266	55.8487	32.2266	55.6671	32.2266	55.7148	32.2266	55.5413	32.2266	55.5861	32.2266	55.4287	32.2266	55.4682	32.2266	55.335	32.2266	55.3671	32.2266	55.2656	32.2266	55.2883	32.2266	55.2247	32.2266	55.2364	32.2266	55.2147
33.6914	57.6929	33.6914	57.6831	33.6914	57.6886	33.6914	57.6596	33.6914	57.6703	33.6914	57.6223	33.6914	57.6379	33.6914	57.5716	33.6914	57.5913	33.6914	57.5077	33.6914	57.5308	33.6914	57.4311	33.6914	57.4567	33.6914	57.3427	33.6914	57.3697	33.6914	57.2436	33.6914	57.2712	33.6914	57.1357	33.6914	57.1628	33.6914	57.0215	33.6914	57.0472	33.6914	56.904	33.6914	56.9277	33.6914	56.7874	33.6914	56.8083	33.6914	56.6762	33.6914	56.6939	33.6914	56.5755	33.6914	56.5899	33.6914	56.4907	33.6914	56.5014	33.6914	56.4265	33.6914	56.4336	33.6914	56.3869	33.6914	56.3904	33.6914	56.3746
34.4238	58.0011	34.4238	57.9863	34.4238	58.0001	34.4238	57.9558	34.4238	57.9831	34.4238	57.9098	34.4238	57.95	34.4238	57.8487	34.4238	57.901	34.4238	57.7729	34.4238	57.8362	34.4238	57.6833	34.4238	57.7561	34.4238	57.581	34.4238	57.6616	34.4238	57.4676	34.4238	57.5539	34.4238	57.3454	34.4238	57.4351	34.4238	57.2173	34.4238	57.3077	34.4238	57.087	34.4238	57.1754	34.4238	56.9592	34.4238	57.0425	34.4238	56.8389	34.4238	56.9141	34.4238	56.7318	34.4238	56.7961	34.4238	56.6434	34.4238	56.6942	34.4238	56.5788	34.4238	56.614	34.4238	56.5421	34.4238	56.56	34.4238	56.5356
35.8887	58.852	35.8887	58.8453	35.8887	58.8445	35.8887	58.8246	35.8887	58.8227	35.8887	58.79	35.8887	58.7867	35.8887	58.7417	35.8887	58.7365	35.8887	58.6803	35.8887	58.6726	35.8887	58.6063	35.8887	58.5954	35.8887	58.5206	35.8887	58.5059	35.8887	58.4245	35.8887	58.4056	35.8887	58.3198	35.8887	58.2965	35.8887	58.2088	35.8887	58.1814	35.8887	58.0946	35.8887	58.0637	35.8887	57.9808	35.8887	57.9478	35.8887	57.8716	35.8887	57.8385	35.8887	57.7717	35.8887	57.7408	35.8887	57.6861	35.8887	57.6599	35.8887	57.6192	35.8887	57.6002	35.8887	57.5751	35.8887	57.5651	35.8887	57.5566
37.3535	59.3067	37.3535	59.3012	37.3535	59.2976	37.3535	59.2811	37.3535	59.2737	37.3535	59.2466	37.3535	59.2352	37.3535	59.1981	37.3535	59.1824	37.3535	59.136	37.3535	59.1157	37.3535	59.0611	37.3535	59.0358	37.3535	58.9743	37.3535	58.9439	37.3535	58.8771	37.3535	58.8417	37.3535	58.7715	37.3535	58.7314	37.3535	58.6597	37.3535	58.6158	37.3535	58.5451	37.3535	58.4987	37.3535	58.4312	37.3535	58.3842	37.3535	58.3222	37.3535	58.277	37.3535	58.2228	37.3535	58.182	37.3535	58.1375	37.3535	58.1039	37.3535	58.0709	37.3535	58.0469	37.3535	58.0266	37.3535	58.014	37.3535	58.0072
38.8184	60.0517	38.8184	60.0472	38.8184	60.0403	38.8184	60.0267	38.8184	60.0129	38.8184	59.9906	38.8184	59.9695	38.8184	59.9392	38.8184	59.9105	38.8184	59.873	38.8184	59.8364	38.8184	59.7927	38.8184	59.748	38.8184	59.6993	38.8184	59.6464	38.8184	59.5944	38.8184	59.5337	38.8184	59.48	38.8184	59.4121	38.8184	59.3586	38.8184	59.2851	38.8184	59.2334	38.8184	59.1566	38.8184	59.1085	38.8184	59.0313	38.8184	58.9884	38.8184	58.9145	38.8184	58.878	38.8184	58.8116	38.8184	58.7825	38.8184	58.7279	38.8184	58.7067	38.8184	58.6679	38.8184	58.655	38.8184	58.6348	38.8184	58.6305
39.5508	60.0328	39.5508	60.0379	39.5508	60.0113	39.5508	60.0268	39.5508	59.9736	39.5508	59.9995	39.5508	59.9197	39.5508	59.9565	39.5508	59.8502	39.5508	59.8981	39.5508	59.7657	39.5508	59.825	39.5508	59.6673	39.5508	59.7382	39.5508	59.5567	39.5508	59.639	39.5508	59.4362	39.5508	59.5291	39.5508	59.3089	39.5508	59.4109	39.5508	59.1785	39.5508	59.2871	39.5508	59.0498	39.5508	59.1613	39.5508	58.9278	39.5508	59.0376	39.5508	58.8183	39.5508	58.9205	39.5508	58.7266	39.5508	58.8149	39.5508	58.6575	39.5508	58.7259	39.5508	58.6147	39.5508	58.6581	39.5508	58.6005	39.5508	58.6154
41.0156	61.7339	41.0156	61.7027	41.0156	61.75	41.0156	61.657	41.0156	61.7509	41.0156	61.5974	41.0156	61.7361	41.0156	61.5245	41.0156	61.7055	41.0156	61.4392	41.0156	61.6591	41.0156	61.3428	41.0156	61.5971	41.0156	61.2368	41.0156	61.5199	41.0156	61.1232	41.0156	61.4285	41.0156	61.0047	41.0156	61.3243	41.0156	60.8845	41.0156	61.2094	41.0156	60.7666	41.0156	61.0865	41.0156	60.6554	41.0156	60.9593	41.0156	60.5557	41.0156	60.8322	41.0156	60.4726	41.0156	60.7104	41.0156	60.4107	41.0156	60.5995	41.0156	60.3738	41.0156	60.5049	41.0156	60.3646	41.0156	60.4318	41.0156	60.3842
42.4805	62.4502	42.4805	62.4366	42.4805	62.4484	42.4805	62.4077	42.4805	62.4311	42.4805	62.3637	42.4805	62.3984	42.4805	62.3051	42.4805	62.3504	42.4805	62.2325	42.4805	62.2876	42.4805	62.1467	42.4805	62.2107	42.4805	62.0491	42.4805	62.1207	42.4805	61.9413	42.4805	62.0192	42.4805	61.8259	42.4805	61.9082	42.4805	61.7057	42.4805	61.7903	42.4805	61.5845	42.4805	61.669	42.4805	61.4668	42.4805	61.5482	42.4805	61.3572	42.4805	61.4324	42.4805	61.2608	42.4805	61.3263	42.4805	61.1823	42.4805	61.235	42.4805	61.126	42.4805	61.1629	42.4805	61.0949	42.4805	61.1139	42.4805	61.0908
43.9453	62.8794	43.9453	62.8651	43.9453	62.8791	43.9453	62.8364	43.9453	62.8643	43.9453	62.7937	43.9453	62.8349	43.9453	62.7372	43.9453	62.7912	43.9453	62.6677	43.9453	62.7334	43.9453	62.586	43.9453	62.6622	43.9453	62.4934	43.9453	62.5785	43.9453	62.3916	43.9453	62.4837	43.9453	62.2829	43.9453	62.3797	43.9453	62.1702	43.9453	62.2689	43.9453	62.0569	43.9453	62.1544	43.9453	61.9471	43.9453	62.0401	43.9453	61.8453	43.9453	61.9301	43.9453	61.7561	43.9453	61.8292	43.9453	61.6838	43.9453	61.742	43.9453	61.6323	43.9453	61.6728	43.9453	61.6045	43.9453	61.6253	43.9453	61.6021
45.4102	63.414	45.4102	63.4053	45.4102	63.408	45.4102	63.3822	45.4102	63.3875	45.4102	63.3446	45.4102	63.3524	45.4102	63.2931	45.4102	63.303	45.4102	63.2279	45.4102	63.2398	45.4102	63.1499	45.4102	63.1634	45.4102	63.0601	45.4102	63.0748	45.4102	62.96	45.4102	62.9755	45.4102	62.8517	45.4102	62.8674	45.4102	62.7378	45.4102	62.7534	45.4102	62.6216	45.4102	62.6366	45.4102	62.5073	45.4102	62.5211	45.4102	62.3991	45.4102	62.4114	45.4102	62.302	45.4102	62.3123	45.4102	62.2206	45.4102	62.2287	45.4102	62.1594	45.4102	62.1649	45.4102	62.1217	45.4102	62.1245	45.4102	62.1098
47.6074	64.335	47.6074	64.3271	47.6074	64.3294	47.6074	64.3057	47.6074	64.3101	47.6074	64.2712	47.6074	64.2773	47.6074	64.224	47.6074	64.2313	47.6074	64.1645	47.6074	64.1725	47.6074	64.0937	47.6074	64.1017	47.6074	64.0126	47.6074	64.02	47.6074	63.9228	47.6074	63.9289	47.6074	63.826	47.6074	63.8307	47.6074	63.7249	47.6074	63.7278	47.6074	63.6224	47.6074	63.6234	47.6074	63.5218	47.6074	63.5212	47.6074	63.427	47.6074	63.4252	47.6074	63.342	47.6074	63.3395	47.6074	63.2707	47.6074	63.2681	47.6074	63.2166	47.6074	63.2145	47.6074	63.1827	47.6074	63.1815	47.6074	63.1707
49.0723	64.9072	49.0723	64.8981	49.0723	64.9019	49.0723	64.8747	49.0723	64.8821	49.0723	64.8374	49.0723	64.8479	49.0723	64.7865	49.0723	64.7996	49.0723	64.7229	49.0723	64.7378	49.0723	64.6475	49.0723	64.6633	49.0723	64.5615	49.0723	64.5774	49.0723	64.4666	49.0723	64.4817	49.0723	64.3648	49.0723	64.3785	49.0723	64.2589	49.0723	64.2704	49.0723	64.1518	49.0723	64.1609	49.0723	64.0472	49.0723	64.0537	49.0723	63.9489	49.0723	63.9531	49.0723	63.861	49.0723	63.8633	49.0723	63.7875	49.0723	63.7885	49.0723	63.732	49.0723	63.7322	49.0723	63.6974	49.0723	63.6974	49.0723	63.6856
50.5371	65.438	50.5371	65.4283	50.5371	65.4332	50.5371	65.4043	50.5371	65.4139	50.5371	65.3663	50.5371	65.3802	50.5371	65.3148	50.5371	65.3324	50.5371	65.2504	50.5371	65.271	50.5371	65.1742	50.5371	65.1968	50.5371	65.0874	50.5371	65.111	50.5371	64.9916	50.5371	65.0152	50.5371	64.8889	50.5371	64.9117	50.5371	64.7821	50.5371	64.8032	50.5371	64.6741	50.5371	64.693	50.5371	64.5688	50.5371	64.5849	50.5371	64.4701	50.5371	64.4832	50.5371	64.382	50.5371	64.3921	50.5371	64.3087	50.5371	64.3159	50.5371	64.2536	50.5371	64.2583	50.5371	64.2198	50.5371	64.222	50.5371	64.209
52.7344	66.1891	52.7344	66.1773	52.7344	66.1865	52.7344	66.1515	52.7344	66.1695	52.7344	66.112	52.7344	66.1382	52.7344	66.0594	52.7344	66.093	52.7344	65.9944	52.7344	66.0343	52.7344	65.9181	52.7344	65.963	52.7344	65.832	52.7344	65.8803	52.7344	65.7377	52.7344	65.7879	52.7344	65.6376	52.7344	65.688	52.7344	65.5344	52.7344	65.5833	52.7344	65.4311	52.7344	65.477	52.7344	65.3313	52.7344	65.3727	52.7344	65.2387	52.7344	65.2746	52.7344	65.1571	52.7344	65.1866	52.7344	65.09	52.7344	65.1126	52.7344	65.0408	52.7344	65.056	52.7344	65.0117	52.7344	65.0193	52.7344	65.0044
54.1992	66.7984	54.1992	66.7877	54.1992	66.7951	54.1992	66.7633	54.1992	66.7777	54.1992	66.7255	54.1992	66.7465	54.1992	66.6748	54.1992	66.7017	54.1992	66.6121	54.1992	66.644	54.1992	66.5383	54.1992	66.5741	54.1992	66.4549	54.1992	66.4934	54.1992	66.3635	54.1992	66.4035	54.1992	66.2664	54.1992	66.3065	54.1992	66.1662	54.1992	66.2052	54.1992	66.066	54.1992	66.1026	54.1992	65.9691	54.1992	66.0023	54.1992	65.8792	54.1992	65.9081	54.1992	65.8	54.1992	65.8238	54.1992	65.7348	54.1992	65.7531	54.1992	65.6868	54.1992	65.6992	54.1992	65.6583	54.1992	65.6645	54.1992	65.6507
56.3965	67.4716	56.3965	67.4605	56.3965	67.4684	56.3965	67.4354	56.3965	67.4508	56.3965	67.3967	56.3965	67.419	56.3965	67.3451	56.3965	67.3734	56.3965	67.2815	56.3965	67.3146	56.3965	67.207	56.3965	67.2437	56.3965	67.1232	56.3965	67.162	56.3965	67.0321	56.3965	67.0715	56.3965	66.9358	56.3965	66.9743	56.3965	66.8371	56.3965	66.8734	56.3965	66.739	56.3965	66.772	56.3965	66.6447	56.3965	66.6736	56.3965	66.5577	56.3965	66.5818	56.3965	66.4813	56.3965	66.5005	56.3965	66.4186	56.3965	66.4328	56.3965	66.3724	56.3965	66.3817	56.3965	66.3447	56.3965	66.3493	56.3965	66.3368
