"SPL Horizontal"
"On-Axis"		"10°"		"-10°"		"20°"		"-20°"		"30°"		"-30°"		"40°"		"-40°"		"50°"		"-50°"		"60°"		"-60°"		"70°"		"-70°"		"80°"		"-80°"		"90°"		"-90°"		"100°"		"-100°"		"110°"		"-110°"		"120°"		"-120°"		"130°"		"-130°"		"140°"		"-140°"		"150°"		"-150°"		"160°"		"-160°"		"170°"		"-170°"		"180°"
"Frequency / Hz"	"Sound Pressure Level / dB (re 20 µPa/V)  [2.83  V @ 1. m]"	"Frequency / Hz"	"Sound Pressure Level / dB (re 20 µPa/V)  [2.83  V @ 1. m]"	"Frequency / Hz"	"Sound Pressure Level / dB (re 20 µPa/V)  [2.83  V @ 1. m]"	"Frequency / Hz"	"Sound Pressure Level / dB (re 20 µPa/V)  [2.83  V @ 1. m]"	"Frequency / Hz"	"Sound Pressure Level / dB (re 20 µPa/V)  [2.83  V @ 1. m]"	"Frequency / Hz"	"Sound Pressure Level / dB (re 20 µPa/V)  [2.83  V @ 1. m]"	"Frequency / Hz"	"Sound Pressure Level / dB (re 20 µPa/V)  [2.83  V @ 1. m]"	"Frequency / Hz"	"Sound Pressure Level / dB (re 20 µPa/V)  [2.83  V @ 1. m]"	"Frequency / Hz"	"Sound Pressure Level / dB (re 20 µPa/V)  [2.83  V @ 1. m]"	"Frequency / Hz"	"Sound Pressure Level / dB (re 20 µPa/V)  [2.83  V @ 1. m]"	"Frequency / Hz"	"Sound Pressure Level / dB (re 20 µPa/V)  [2.83  V @ 1. m]"	"Frequency / Hz"	"Sound Pressure Level / dB (re 20 µPa/V)  [2.83  V @ 1. m]"	"Frequency / Hz"	"Sound Pressure Level / dB (re 20 µPa/V)  [2.83  V @ 1. m]"	"Frequency / Hz"	"Sound Pressure Level / dB (re 20 µPa/V)  [2.83  V @ 1. m]"	"Frequency / Hz"	"Sound Pressure Level / dB (re 20 µPa/V)  [2.83  V @ 1. m]"	"Frequency / Hz"	"Sound Pressure Level / dB (re 20 µPa/V)  [2.83  V @ 1. m]"	"Frequency / Hz"	"Sound Pressure Level / dB (re 20 µPa/V)  [2.83  V @ 1. m]"	"Frequency / Hz"	"Sound Pressure Level / dB (re 20 µPa/V)  [2.83  V @ 1. m]"	"Frequency / Hz"	"Sound Pressure Level / dB (re 20 µPa/V)  [2.83  V @ 1. m]"	"Frequency / Hz"	"Sound Pressure Level / dB (re 20 µPa/V)  [2.83  V @ 1. m]"	"Frequency / Hz"	"Sound Pressure Level / dB (re 20 µPa/V)  [2.83  V @ 1. m]"	"Frequency / Hz"	"Sound Pressure Level / dB (re 20 µPa/V)  [2.83  V @ 1. m]"	"Frequency / Hz"	"Sound Pressure Level / dB (re 20 µPa/V)  [2.83  V @ 1. m]"	"Frequency / Hz"	"Sound Pressure Level / dB (re 20 µPa/V)  [2.83  V @ 1. m]"	"Frequency / Hz"	"Sound Pressure Level / dB (re 20 µPa/V)  [2.83  V @ 1. m]"	"Frequency / Hz"	"Sound Pressure Level / dB (re 20 µPa/V)  [2.83  V @ 1. m]"	"Frequency / Hz"	"Sound Pressure Level / dB (re 20 µPa/V)  [2.83  V @ 1. m]"	"Frequency / Hz"	"Sound Pressure Level / dB (re 20 µPa/V)  [2.83  V @ 1. m]"	"Frequency / Hz"	"Sound Pressure Level / dB (re 20 µPa/V)  [2.83  V @ 1. m]"	"Frequency / Hz"	"Sound Pressure Level / dB (re 20 µPa/V)  [2.83  V @ 1. m]"	"Frequency / Hz"	"Sound Pressure Level / dB (re 20 µPa/V)  [2.83  V @ 1. m]"	"Frequency / Hz"	"Sound Pressure Level / dB (re 20 µPa/V)  [2.83  V @ 1. m]"	"Frequency / Hz"	"Sound Pressure Level / dB (re 20 µPa/V)  [2.83  V @ 1. m]"	"Frequency / Hz"	"Sound Pressure Level / dB (re 20 µPa/V)  [2.83  V @ 1. m]"	"Frequency / Hz"	"Sound Pressure Level / dB (re 20 µPa/V)  [2.83  V @ 1. m]"	"Frequency / Hz"	"Sound Pressure Level / dB (re 20 µPa/V)  [2.83  V @ 1. m]"
20.5078	51.1389	20.5078	51.1727	20.5078	51.0904	20.5078	51.1909	20.5078	51.0284	20.5078	51.1931	20.5078	50.9553	20.5078	51.1792	20.5078	50.8739	20.5078	51.1493	20.5078	50.7877	20.5078	51.1036	20.5078	50.7001	20.5078	51.0423	20.5078	50.6141	20.5078	50.9659	20.5078	50.531	20.5078	50.8751	20.5078	50.4501	20.5078	50.7709	20.5078	50.3693	20.5078	50.6546	20.5078	50.2853	20.5078	50.5283	20.5078	50.1962	20.5078	50.3949	20.5078	50.1031	20.5078	50.2591	20.5078	50.0115	20.5078	50.1282	20.5078	49.9308	20.5078	50.0117	20.5078	49.8729	20.5078	49.9205	20.5078	49.8484	20.5078	49.8642
21.9727	56.6667	21.9727	56.6518	21.9727	56.6765	21.9727	56.6321	21.9727	56.6804	21.9727	56.6082	21.9727	56.678	21.9727	56.5803	21.9727	56.6686	21.9727	56.5489	21.9727	56.652	21.9727	56.5143	21.9727	56.6284	21.9727	56.4772	21.9727	56.5986	21.9727	56.4384	21.9727	56.5641	21.9727	56.3993	21.9727	56.527	21.9727	56.3612	21.9727	56.4892	21.9727	56.326	21.9727	56.4525	21.9727	56.2956	21.9727	56.4179	21.9727	56.2715	21.9727	56.3857	21.9727	56.2548	21.9727	56.3559	21.9727	56.2459	21.9727	56.3284	21.9727	56.2449	21.9727	56.3033	21.9727	56.251	21.9727	56.2813	21.9727	56.2635
23.4375	58.317	23.4375	58.3125	23.4375	58.3152	23.4375	58.3018	23.4375	58.3069	23.4375	58.285	23.4375	58.2921	23.4375	58.2624	23.4375	58.2706	23.4375	58.234	23.4375	58.2425	23.4375	58.2003	23.4375	58.208	23.4375	58.1617	23.4375	58.1676	23.4375	58.1189	23.4375	58.1222	23.4375	58.0729	23.4375	58.0731	23.4375	58.0248	23.4375	58.0218	23.4375	57.976	23.4375	57.9701	23.4375	57.928	23.4375	57.9196	23.4375	57.8823	23.4375	57.8724	23.4375	57.8407	23.4375	57.8303	23.4375	57.8048	23.4375	57.7953	23.4375	57.7767	23.4375	57.7694	23.4375	57.758	23.4375	57.754	23.4375	57.7502
24.9023	60.9019	24.9023	60.8939	24.9023	60.9045	24.9023	60.8806	24.9023	60.9014	24.9023	60.8624	24.9023	60.892	24.9023	60.8396	24.9023	60.8763	24.9023	60.8125	24.9023	60.8539	24.9023	60.7812	24.9023	60.8249	24.9023	60.7463	24.9023	60.7893	24.9023	60.708	24.9023	60.7477	24.9023	60.6669	24.9023	60.7009	24.9023	60.6236	24.9023	60.65	24.9023	60.5788	24.9023	60.5966	24.9023	60.5336	24.9023	60.5427	24.9023	60.489	24.9023	60.4905	24.9023	60.4468	24.9023	60.4428	24.9023	60.4093	24.9023	60.4025	24.9023	60.3789	24.9023	60.3723	24.9023	60.3583	24.9023	60.3542	24.9023	60.3496
26.3672	63.025	26.3672	63.014	26.3672	63.0301	26.3672	62.9972	26.3672	63.0292	26.3672	62.9749	26.3672	63.0221	26.3672	62.9473	26.3672	63.0089	26.3672	62.9148	26.3672	62.9895	26.3672	62.8776	26.3672	62.9641	26.3672	62.8364	26.3672	62.9328	26.3672	62.7918	26.3672	62.8959	26.3672	62.7449	26.3672	62.854	26.3672	62.6967	26.3672	62.8078	26.3672	62.6487	26.3672	62.7582	26.3672	62.6026	26.3672	62.7065	26.3672	62.5604	26.3672	62.6547	26.3672	62.5241	26.3672	62.6049	26.3672	62.4957	26.3672	62.5596	26.3672	62.4773	26.3672	62.5214	26.3672	62.4703	26.3672	62.4928	26.3672	62.4754
27.832	64.797	27.832	64.786	27.832	64.8024	27.832	64.7697	27.832	64.8021	27.832	64.7484	27.832	64.7958	27.832	64.7224	27.832	64.7836	27.832	64.692	27.832	64.7654	27.832	64.6578	27.832	64.7413	27.832	64.6202	27.832	64.7116	27.832	64.58	27.832	64.6767	27.832	64.5381	27.832	64.637	27.832	64.4954	27.832	64.5934	27.832	64.4533	27.832	64.5473	27.832	64.4132	27.832	64.5	27.832	64.3769	27.832	64.4535	27.832	64.3459	27.832	64.4099	27.832	64.3219	27.832	64.3714	27.832	64.3062	27.832	64.3399	27.832	64.2998	27.832	64.3168	27.832	64.3033
29.2969	66.3017	29.2969	66.2861	29.2969	66.3099	29.2969	66.2632	29.2969	66.3104	29.2969	66.2333	29.2969	66.3034	29.2969	66.1969	29.2969	66.2889	29.2969	66.1547	29.2969	66.2671	29.2969	66.1073	29.2969	66.2383	29.2969	66.0558	29.2969	66.2027	29.2969	66.0011	29.2969	66.1607	29.2969	65.9448	29.2969	66.1127	29.2969	65.8883	29.2969	66.0593	29.2969	65.8335	29.2969	66.0016	29.2969	65.7824	29.2969	65.941	29.2969	65.737	29.2969	65.8798	29.2969	65.6995	29.2969	65.8206	29.2969	65.6718	29.2969	65.7665	29.2969	65.6555	29.2969	65.7204	29.2969	65.652	29.2969	65.6849	29.2969	65.6618
30.7617	67.9678	30.7617	67.9531	30.7617	67.9764	30.7617	67.9326	30.7617	67.9786	30.7617	67.9066	30.7617	67.9743	30.7617	67.8755	30.7617	67.9634	30.7617	67.8399	30.7617	67.946	30.7617	67.8001	30.7617	67.922	30.7617	67.7571	30.7617	67.8917	30.7617	67.7116	30.7617	67.8554	30.7617	67.6645	30.7617	67.8133	30.7617	67.6173	30.7617	67.7663	30.7617	67.5713	30.7617	67.7154	30.7617	67.5281	30.7617	67.662	30.7617	67.4896	30.7617	67.6084	30.7617	67.4574	30.7617	67.5568	30.7617	67.4334	30.7617	67.5102	30.7617	67.4188	30.7617	67.4709	30.7617	67.4149	30.7617	67.4412	30.7617	67.4223
32.2266	69.0596	32.2266	69.0442	32.2266	69.0698	32.2266	69.0237	32.2266	69.0744	32.2266	68.9985	32.2266	69.0736	32.2266	68.9691	32.2266	69.0673	32.2266	68.9361	32.2266	69.0557	32.2266	68.9002	32.2266	69.0392	32.2266	68.8624	32.2266	69.0179	32.2266	68.8236	32.2266	68.9923	32.2266	68.7852	32.2266	68.9628	32.2266	68.7485	32.2266	68.93	32.2266	68.7148	32.2266	68.8943	32.2266	68.6857	32.2266	68.8568	32.2266	68.6624	32.2266	68.8183	32.2266	68.646	32.2266	68.7801	32.2266	68.6373	32.2266	68.7436	32.2266	68.6367	32.2266	68.7104	32.2266	68.6442	32.2266	68.6819	32.2266	68.6595
33.6914	69.9986	33.6914	69.9826	33.6914	70.008	33.6914	69.9606	33.6914	70.0109	33.6914	69.9327	33.6914	70.0072	33.6914	69.8996	33.6914	69.997	33.6914	69.8619	33.6914	69.9805	33.6914	69.8205	33.6914	69.9581	33.6914	69.7764	33.6914	69.9303	33.6914	69.731	33.6914	69.8975	33.6914	69.6855	33.6914	69.8606	33.6914	69.6418	33.6914	69.8202	33.6914	69.6013	33.6914	69.7775	33.6914	69.5659	33.6914	69.7335	33.6914	69.537	33.6914	69.6895	33.6914	69.5159	33.6914	69.647	33.6914	69.5036	33.6914	69.6075	33.6914	69.5003	33.6914	69.5724	33.6914	69.5061	33.6914	69.543	33.6914	69.5206
35.1562	70.9743	35.1562	70.9636	35.1562	70.9797	35.1562	70.948	35.1562	70.9799	35.1562	70.9277	35.1562	70.9748	35.1562	70.903	35.1562	70.9646	35.1562	70.8744	35.1562	70.9494	35.1562	70.8426	35.1562	70.9296	35.1562	70.8081	35.1562	70.9053	35.1562	70.7719	35.1562	70.8771	35.1562	70.7349	35.1562	70.8455	35.1562	70.6983	35.1562	70.8111	35.1562	70.6632	35.1562	70.7746	35.1562	70.6309	35.1562	70.737	35.1562	70.6029	35.1562	70.6996	35.1562	70.5804	35.1562	70.6637	35.1562	70.5646	35.1562	70.6307	35.1562	70.5562	35.1562	70.6022	35.1562	70.556	35.1562	70.5796	35.1562	70.5639
36.6211	71.6545	36.6211	71.638	36.6211	71.6651	36.6211	71.6159	36.6211	71.6696	36.6211	71.5886	36.6211	71.6679	36.6211	71.5565	36.6211	71.6599	36.6211	71.5204	36.6211	71.6459	36.6211	71.4809	36.6211	71.626	36.6211	71.439	36.6211	71.6004	36.6211	71.3957	36.6211	71.5698	36.6211	71.3523	36.6211	71.5345	36.6211	71.31	36.6211	71.4953	36.6211	71.2705	36.6211	71.4532	36.6211	71.2354	36.6211	71.4091	36.6211	71.2061	36.6211	71.3643	36.6211	71.1842	36.6211	71.3205	36.6211	71.1709	36.6211	71.2791	36.6211	71.1668	36.6211	71.2421	36.6211	71.1724	36.6211	71.211	36.6211	71.1874
38.0859	72.3444	38.0859	72.3308	38.0859	72.3529	38.0859	72.3123	38.0859	72.356	38.0859	72.2894	38.0859	72.3537	38.0859	72.2627	38.0859	72.346	38.0859	72.2327	38.0859	72.3329	38.0859	72.2002	38.0859	72.3148	38.0859	72.1659	38.0859	72.2918	38.0859	72.1309	38.0859	72.2643	38.0859	72.0959	38.0859	72.2328	38.0859	72.0618	38.0859	72.198	38.0859	72.0298	38.0859	72.1606	38.0859	72.0007	38.0859	72.1218	38.0859	71.9756	38.0859	72.083	38.0859	71.9556	38.0859	72.0456	38.0859	71.9416	38.0859	72.0115	38.0859	71.9345	38.0859	71.9821	38.0859	71.9348	38.0859	71.959	38.0859	71.943
39.5508	73.0368	39.5508	73.0245	39.5508	73.0433	39.5508	73.0066	39.5508	73.0439	39.5508	72.9836	39.5508	73.0384	39.5508	72.9562	39.5508	73.0271	39.5508	72.9251	39.5508	73.0103	39.5508	72.8913	39.5508	72.9885	39.5508	72.8556	39.5508	72.9624	39.5508	72.8193	39.5508	72.9326	39.5508	72.7835	39.5508	72.9002	39.5508	72.7495	39.5508	72.8661	39.5508	72.7186	39.5508	72.8314	39.5508	72.6918	39.5508	72.7972	39.5508	72.6701	39.5508	72.7646	39.5508	72.6543	39.5508	72.7344	39.5508	72.6447	39.5508	72.7076	39.5508	72.6413	39.5508	72.6847	39.5508	72.644	39.5508	72.6661	39.5508	72.6524
41.0156	73.5425	41.0156	73.5329	41.0156	73.5458	41.0156	73.517	41.0156	73.5428	41.0156	73.4954	41.0156	73.5334	41.0156	73.4685	41.0156	73.5179	41.0156	73.4369	41.0156	73.4969	41.0156	73.4015	41.0156	73.4708	41.0156	73.3632	41.0156	73.4405	41.0156	73.3232	41.0156	73.4069	41.0156	73.2828	41.0156	73.371	41.0156	73.2435	41.0156	73.334	41.0156	73.2068	41.0156	73.2971	41.0156	73.1742	41.0156	73.2613	41.0156	73.147	41.0156	73.2276	41.0156	73.1264	41.0156	73.1969	41.0156	73.1129	41.0156	73.1697	41.0156	73.1067	41.0156	73.1467	41.0156	73.1076	41.0156	73.1282	41.0156	73.115
42.4805	74.114	42.4805	74.1053	42.4805	74.1167	42.4805	74.0908	42.4805	74.113	42.4805	74.071	42.4805	74.1032	42.4805	74.0465	42.4805	74.0873	42.4805	74.0182	42.4805	74.0658	42.4805	73.9868	42.4805	74.0393	42.4805	73.9535	42.4805	74.0087	42.4805	73.9192	42.4805	73.975	42.4805	73.8852	42.4805	73.9395	42.4805	73.8524	42.4805	73.9035	42.4805	73.8219	42.4805	73.8685	42.4805	73.7943	42.4805	73.8356	42.4805	73.7706	42.4805	73.8059	42.4805	73.7511	42.4805	73.7803	42.4805	73.7365	42.4805	73.759	42.4805	73.7271	42.4805	73.7425	42.4805	73.723	42.4805	73.7308	42.4805	73.7243
43.9453	74.5413	43.9453	74.5358	43.9453	74.54	43.9453	74.5239	43.9453	74.5319	43.9453	74.5063	43.9453	74.517	43.9453	74.4835	43.9453	74.4958	43.9453	74.4565	43.9453	74.469	43.9453	74.4264	43.9453	74.4373	43.9453	74.3944	43.9453	74.402	43.9453	74.3616	43.9453	74.3646	43.9453	74.3293	43.9453	74.3265	43.9453	74.2985	43.9453	74.2894	43.9453	74.2699	43.9453	74.2549	43.9453	74.244	43.9453	74.2244	43.9453	74.2211	43.9453	74.1988	43.9453	74.2013	43.9453	74.1789	43.9453	74.1846	43.9453	74.1647	43.9453	74.1711	43.9453	74.1563	43.9453	74.1611	43.9453	74.1532	43.9453	74.155
45.4102	75.0646	45.4102	75.0586	45.4102	75.0628	45.4102	75.0453	45.4102	75.0532	45.4102	75.0253	45.4102	75.0359	45.4102	74.9993	45.4102	75.0112	45.4102	74.9683	45.4102	74.9797	45.4102	74.9333	45.4102	74.9424	45.4102	74.8955	45.4102	74.9005	45.4102	74.8562	45.4102	74.8554	45.4102	74.8166	45.4102	74.8089	45.4102	74.7779	45.4102	74.7627	45.4102	74.7409	45.4102	74.7188	45.4102	74.7065	45.4102	74.679	45.4102	74.6752	45.4102	74.6447	45.4102	74.6474	45.4102	74.6171	45.4102	74.6236	45.4102	74.5969	45.4102	74.6042	45.4102	74.5843	45.4102	74.5899	45.4102	74.5793	45.4102	74.5814
46.875	75.524	46.875	75.5172	46.875	75.5222	46.875	75.5024	46.875	75.5117	46.875	75.4802	46.875	75.4924	46.875	75.4514	46.875	75.4646	46.875	75.4169	46.875	75.4287	46.875	75.3777	46.875	75.3856	46.875	75.3351	46.875	75.3366	46.875	75.2901	46.875	75.2831	46.875	75.2439	46.875	75.227	46.875	75.1975	46.875	75.1703	46.875	75.152	46.875	75.1154	46.875	75.1083	46.875	75.0644	46.875	75.0673	46.875	75.0195	46.875	75.0297	46.875	74.9827	46.875	74.9965	46.875	74.9553	46.875	74.9689	46.875	74.9382	46.875	74.948	46.875	74.9316	46.875	74.9352
48.3398	75.9861	48.3398	75.9766	48.3398	75.9869	48.3398	75.9586	48.3398	75.9785	48.3398	75.9329	48.3398	75.961	48.3398	75.9002	48.3398	75.9346	48.3398	75.8615	48.3398	75.8998	48.3398	75.8177	48.3398	75.8574	48.3398	75.7701	48.3398	75.8083	48.3398	75.72	48.3398	75.7542	48.3398	75.6685	48.3398	75.6966	48.3398	75.617	48.3398	75.6377	48.3398	75.5669	48.3398	75.5795	48.3398	75.5193	48.3398	75.5244	48.3398	75.4755	48.3398	75.4744	48.3398	75.4368	48.3398	75.4314	48.3398	75.4043	48.3398	75.3972	48.3398	75.3792	48.3398	75.3728	48.3398	75.3627	48.3398	75.359	48.3398	75.3557
51.2695	76.878	51.2695	76.8659	51.2695	76.8814	51.2695	76.8456	51.2695	76.876	51.2695	76.8178	51.2695	76.8618	51.2695	76.7834	51.2695	76.839	51.2695	76.7434	51.2695	76.8083	51.2695	76.699	51.2695	76.7705	51.2695	76.6516	51.2695	76.7266	51.2695	76.6026	51.2695	76.6782	51.2695	76.5535	51.2695	76.6268	51.2695	76.5058	51.2695	76.5743	51.2695	76.461	51.2695	76.5225	51.2695	76.4202	51.2695	76.4732	51.2695	76.3846	51.2695	76.4281	51.2695	76.355	51.2695	76.3889	51.2695	76.3322	51.2695	76.3567	51.2695	76.3166	51.2695	76.3323	51.2695	76.3084	51.2695	76.3161	51.2695	76.3082
52.7344	77.2941	52.7344	77.2815	52.7344	77.298	52.7344	77.2607	52.7344	77.293	52.7344	77.2324	52.7344	77.279	52.7344	77.1975	52.7344	77.2564	52.7344	77.1573	52.7344	77.2258	52.7344	77.113	52.7344	77.1881	52.7344	77.066	52.7344	77.1446	52.7344	77.018	52.7344	77.0966	52.7344	76.9704	52.7344	77.0458	52.7344	76.9248	52.7344	76.9942	52.7344	76.8824	52.7344	76.9435	52.7344	76.8446	52.7344	76.8957	52.7344	76.8121	52.7344	76.8525	52.7344	76.7854	52.7344	76.8154	52.7344	76.765	52.7344	76.7855	52.7344	76.751	52.7344	76.7634	52.7344	76.7434	52.7344	76.7492	52.7344	76.7427
54.1992	77.7791	54.1992	77.7653	54.1992	77.7842	54.1992	77.7435	54.1992	77.7804	54.1992	77.7145	54.1992	77.7677	54.1992	77.6794	54.1992	77.7463	54.1992	77.6394	54.1992	77.717	54.1992	77.5962	54.1992	77.6807	54.1992	77.5512	54.1992	77.6387	54.1992	77.5061	54.1992	77.5927	54.1992	77.4624	54.1992	77.5445	54.1992	77.4218	54.1992	77.496	54.1992	77.3854	54.1992	77.4492	54.1992	77.354	54.1992	77.406	54.1992	77.3282	54.1992	77.368	54.1992	77.308	54.1992	77.3364	54.1992	77.2932	54.1992	77.3118	54.1992	77.2835	54.1992	77.2943	54.1992	77.2785	54.1992	77.2833	54.1992	77.2783
55.6641	78.2285	55.6641	78.2146	55.6641	78.2339	55.6641	78.1926	55.6641	78.2304	55.6641	78.1635	55.6641	78.2181	55.6641	78.1282	55.6641	78.1972	55.6641	78.0881	55.6641	78.1683	55.6641	78.0445	55.6641	78.1323	55.6641	77.999	55.6641	78.0905	55.6641	77.9534	55.6641	78.0443	55.6641	77.909	55.6641	77.9955	55.6641	77.8675	55.6641	77.9459	55.6641	77.8299	55.6641	77.8975	55.6641	77.7972	55.6641	77.8523	55.6641	77.77	55.6641	77.8119	55.6641	77.7482	55.6641	77.7777	55.6641	77.7317	55.6641	77.7507	55.6641	77.7205	55.6641	77.7312	55.6641	77.7144	55.6641	77.719	55.6641	77.7137
58.5938	79.0731	58.5938	79.0625	58.5938	79.0727	58.5938	79.0417	58.5938	79.061	58.5938	79.0116	58.5938	79.038	58.5938	78.9739	58.5938	79.0042	58.5938	78.9302	58.5938	78.9609	58.5938	78.8825	58.5938	78.9094	58.5938	78.8327	58.5938	78.852	58.5938	78.7828	58.5938	78.791	58.5938	78.7347	58.5938	78.7293	58.5938	78.6898	58.5938	78.67	58.5938	78.6493	58.5938	78.6158	58.5938	78.6136	58.5938	78.5692	58.5938	78.5829	58.5938	78.5321	58.5938	78.5568	58.5938	78.5054	58.5938	78.5348	58.5938	78.489	58.5938	78.5163	58.5938	78.4819	58.5938	78.5011	58.5938	78.4827	58.5938	78.4896
60.0586	79.5687	60.0586	79.5471	60.0586	79.5769	60.0586	79.5132	60.0586	79.5713	60.0586	79.468	60.0586	79.5516	60.0586	79.4133	60.0586	79.5183	60.0586	79.3507	60.0586	79.4719	60.0586	79.2826	60.0586	79.4138	60.0586	79.211	60.0586	79.3457	60.0586	79.1383	60.0586	79.2697	60.0586	79.0667	60.0586	79.1887	60.0586	78.9983	60.0586	79.1055	60.0586	78.9347	60.0586	79.0236	60.0586	78.8772	60.0586	78.9462	60.0586	78.8268	60.0586	78.8763	60.0586	78.7841	60.0586	78.8166	60.0586	78.7499	60.0586	78.7689	60.0586	78.7247	60.0586	78.7345	60.0586	78.7095	60.0586	78.7134	60.0586	78.7054
62.9883	80.3117	62.9883	80.2861	62.9883	80.3264	62.9883	80.2504	62.9883	80.3301	62.9883	80.2056	62.9883	80.3228	62.9883	80.1529	62.9883	80.3047	62.9883	80.0941	62.9883	80.2768	62.9883	80.031	62.9883	80.2399	62.9883	79.9658	62.9883	80.1953	62.9883	79.9007	62.9883	80.1445	62.9883	79.838	62.9883	80.0892	62.9883	79.7799	62.9883	80.0312	62.9883	79.7286	62.9883	79.972	62.9883	79.6856	62.9883	79.9134	62.9883	79.6525	62.9883	79.857	62.9883	79.63	62.9883	79.8039	62.9883	79.6187	62.9883	79.7555	62.9883	79.6183	62.9883	79.7127	62.9883	79.6284	62.9883	79.6766	62.9883	79.6482
64.4531	80.7451	64.4531	80.7219	64.4531	80.7572	64.4531	80.6882	64.4531	80.758	64.4531	80.6451	64.4531	80.7476	64.4531	80.5942	64.4531	80.7266	64.4531	80.5371	64.4531	80.6959	64.4531	80.4761	64.4531	80.657	64.4531	80.4136	64.4531	80.6114	64.4531	80.3522	64.4531	80.5611	64.4531	80.2942	64.4531	80.5079	64.4531	80.2421	64.4531	80.4539	64.4531	80.1978	64.4531	80.401	64.4531	80.1626	64.4531	80.3507	64.4531	80.1374	64.4531	80.3043	64.4531	80.1223	64.4531	80.2625	64.4531	80.1165	64.4531	80.2258	64.4531	80.1193	64.4531	80.1941	64.4531	80.1293	64.4531	80.1673	64.4531	80.1456
67.3828	81.5826	67.3828	81.5605	67.3828	81.5928	67.3828	81.5269	67.3828	81.5908	67.3828	81.4831	67.3828	81.577	67.3828	81.4303	67.3828	81.5519	67.3828	81.3706	67.3828	81.5167	67.3828	81.3061	67.3828	81.4729	67.3828	81.2395	67.3828	81.4221	67.3828	81.1736	67.3828	81.3666	67.3828	81.1111	67.3828	81.3084	67.3828	81.0547	67.3828	81.2498	67.3828	81.0067	67.3828	81.1931	67.3828	80.9687	67.3828	81.1399	67.3828	80.9414	67.3828	81.0919	67.3828	80.9248	67.3828	81.0499	67.3828	80.9178	67.3828	81.0141	67.3828	80.9192	67.3828	80.9844	67.3828	80.9274	67.3828	80.9603	67.3828	80.9413
