"SPL Vertical"
"On-Axis"		"10°"		"-10°"		"20°"		"-20°"		"30°"		"-30°"		"40°"		"-40°"		"50°"		"-50°"		"60°"		"-60°"		"70°"		"-70°"		"80°"		"-80°"		"90°"		"-90°"		"100°"		"-100°"		"110°"		"-110°"		"120°"		"-120°"		"130°"		"-130°"		"140°"		"-140°"		"150°"		"-150°"		"160°"		"-160°"		"170°"		"-170°"		"180°"
"Frequency / Hz"	"Sound Pressure Level / dB (re 20 µPa/V)  [2.83  V @ 1. m]"	"Frequency / Hz"	"Sound Pressure Level / dB (re 20 µPa/V)  [2.83  V @ 1. m]"	"Frequency / Hz"	"Sound Pressure Level / dB (re 20 µPa/V)  [2.83  V @ 1. m]"	"Frequency / Hz"	"Sound Pressure Level / dB (re 20 µPa/V)  [2.83  V @ 1. m]"	"Frequency / Hz"	"Sound Pressure Level / dB (re 20 µPa/V)  [2.83  V @ 1. m]"	"Frequency / Hz"	"Sound Pressure Level / dB (re 20 µPa/V)  [2.83  V @ 1. m]"	"Frequency / Hz"	"Sound Pressure Level / dB (re 20 µPa/V)  [2.83  V @ 1. m]"	"Frequency / Hz"	"Sound Pressure Level / dB (re 20 µPa/V)  [2.83  V @ 1. m]"	"Frequency / Hz"	"Sound Pressure Level / dB (re 20 µPa/V)  [2.83  V @ 1. m]"	"Frequency / Hz"	"Sound Pressure Level / dB (re 20 µPa/V)  [2.83  V @ 1. m]"	"Frequency / Hz"	"Sound Pressure Level / dB (re 20 µPa/V)  [2.83  V @ 1. m]"	"Frequency / Hz"	"Sound Pressure Level / dB (re 20 µPa/V)  [2.83  V @ 1. m]"	"Frequency / Hz"	"Sound Pressure Level / dB (re 20 µPa/V)  [2.83  V @ 1. m]"	"Frequency / Hz"	"Sound Pressure Level / dB (re 20 µPa/V)  [2.83  V @ 1. m]"	"Frequency / Hz"	"Sound Pressure Level / dB (re 20 µPa/V)  [2.83  V @ 1. m]"	"Frequency / Hz"	"Sound Pressure Level / dB (re 20 µPa/V)  [2.83  V @ 1. m]"	"Frequency / Hz"	"Sound Pressure Level / dB (re 20 µPa/V)  [2.83  V @ 1. m]"	"Frequency / Hz"	"Sound Pressure Level / dB (re 20 µPa/V)  [2.83  V @ 1. m]"	"Frequency / Hz"	"Sound Pressure Level / dB (re 20 µPa/V)  [2.83  V @ 1. m]"	"Frequency / Hz"	"Sound Pressure Level / dB (re 20 µPa/V)  [2.83  V @ 1. m]"	"Frequency / Hz"	"Sound Pressure Level / dB (re 20 µPa/V)  [2.83  V @ 1. m]"	"Frequency / Hz"	"Sound Pressure Level / dB (re 20 µPa/V)  [2.83  V @ 1. m]"	"Frequency / Hz"	"Sound Pressure Level / dB (re 20 µPa/V)  [2.83  V @ 1. m]"	"Frequency / Hz"	"Sound Pressure Level / dB (re 20 µPa/V)  [2.83  V @ 1. m]"	"Frequency / Hz"	"Sound Pressure Level / dB (re 20 µPa/V)  [2.83  V @ 1. m]"	"Frequency / Hz"	"Sound Pressure Level / dB (re 20 µPa/V)  [2.83  V @ 1. m]"	"Frequency / Hz"	"Sound Pressure Level / dB (re 20 µPa/V)  [2.83  V @ 1. m]"	"Frequency / Hz"	"Sound Pressure Level / dB (re 20 µPa/V)  [2.83  V @ 1. m]"	"Frequency / Hz"	"Sound Pressure Level / dB (re 20 µPa/V)  [2.83  V @ 1. m]"	"Frequency / Hz"	"Sound Pressure Level / dB (re 20 µPa/V)  [2.83  V @ 1. m]"	"Frequency / Hz"	"Sound Pressure Level / dB (re 20 µPa/V)  [2.83  V @ 1. m]"	"Frequency / Hz"	"Sound Pressure Level / dB (re 20 µPa/V)  [2.83  V @ 1. m]"	"Frequency / Hz"	"Sound Pressure Level / dB (re 20 µPa/V)  [2.83  V @ 1. m]"	"Frequency / Hz"	"Sound Pressure Level / dB (re 20 µPa/V)  [2.83  V @ 1. m]"	"Frequency / Hz"	"Sound Pressure Level / dB (re 20 µPa/V)  [2.83  V @ 1. m]"	"Frequency / Hz"	"Sound Pressure Level / dB (re 20 µPa/V)  [2.83  V @ 1. m]"
20.5078	51.1389	20.5078	50.4072	20.5078	51.9372	20.5078	49.7768	20.5078	52.7594	20.5078	49.2686	20.5078	53.5614	20.5078	48.8849	20.5078	54.302	20.5078	48.6118	20.5078	54.9444	20.5078	48.4251	20.5078	55.4568	20.5078	48.2978	20.5078	55.8133	20.5078	48.2067	20.5078	55.9937	20.5078	48.1353	20.5078	55.9851	20.5078	48.0762	20.5078	55.7828	20.5078	48.0316	20.5078	55.3916	20.5078	48.0134	20.5078	54.8266	20.5078	48.0429	20.5078	54.1142	20.5078	48.149	20.5078	53.2912	20.5078	48.3635	20.5078	52.4032	20.5078	48.7138	20.5078	51.5016	20.5078	49.215	20.5078	50.6391	20.5078	49.8642
21.9727	56.6667	21.9727	56.1025	21.9727	57.2696	21.9727	55.5952	21.9727	57.8877	21.9727	55.1571	21.9727	58.4945	21.9727	54.7939	21.9727	59.062	21.9727	54.5053	21.9727	59.5627	21.9727	54.2873	21.9727	59.9709	21.9727	54.1338	21.9727	60.2643	21.9727	54.0387	21.9727	60.4258	21.9727	53.9976	21.9727	60.445	21.9727	54.0086	21.9727	60.3192	21.9727	54.0723	21.9727	60.0549	21.9727	54.1917	21.9727	59.6674	21.9727	54.3715	21.9727	59.1798	21.9727	54.6159	21.9727	58.6213	21.9727	54.9282	21.9727	58.0227	21.9727	55.3091	21.9727	57.4141	21.9727	55.7563	21.9727	56.821	21.9727	56.2635
23.4375	58.317	23.4375	57.8442	23.4375	58.8327	23.4375	57.4283	23.4375	59.3715	23.4375	57.0762	23.4375	59.9083	23.4375	56.7888	23.4375	60.4156	23.4375	56.5623	23.4375	60.8649	23.4375	56.3902	23.4375	61.2294	23.4375	56.2656	23.4375	61.4856	23.4375	56.1823	23.4375	61.6154	23.4375	56.1366	23.4375	61.6082	23.4375	56.1269	23.4375	61.4622	23.4375	56.1548	23.4375	61.1859	23.4375	56.2235	23.4375	60.7973	23.4375	56.3381	23.4375	60.3235	23.4375	56.5038	23.4375	59.7966	23.4375	56.7255	23.4375	59.2499	23.4375	57.0066	23.4375	58.7127	23.4375	57.3484	23.4375	58.2078	23.4375	57.7502
24.9023	60.9019	24.9023	60.4812	24.9023	61.3603	24.9023	60.1092	24.9023	61.8399	24.9023	59.7915	24.9023	62.3194	24.9023	59.529	24.9023	62.7746	24.9023	59.3187	24.9023	63.18	24.9023	59.1562	24.9023	63.5105	24.9023	59.0363	24.9023	63.7443	24.9023	58.9545	24.9023	63.864	24.9023	58.9078	24.9023	63.8594	24.9023	58.8953	24.9023	63.7283	24.9023	58.9178	24.9023	63.4781	24.9023	58.9779	24.9023	63.1253	24.9023	59.0795	24.9023	62.6943	24.9023	59.2272	24.9023	62.2144	24.9023	59.4254	24.9023	61.7159	24.9023	59.6776	24.9023	61.2259	24.9023	59.9857	24.9023	60.7657	24.9023	60.3496
26.3672	63.025	26.3672	62.656	26.3672	63.4265	26.3672	62.3283	26.3672	63.847	26.3672	62.0462	26.3672	64.2685	26.3672	61.8104	26.3672	64.6697	26.3672	61.6187	26.3672	65.0276	26.3672	61.4678	26.3672	65.3195	26.3672	61.354	26.3672	65.5246	26.3672	61.2742	26.3672	65.6269	26.3672	61.2263	26.3672	65.6167	26.3672	61.2099	26.3672	65.4925	26.3672	61.2256	26.3672	65.2616	26.3672	61.2758	26.3672	64.9401	26.3672	61.3635	26.3672	64.551	26.3672	61.4923	26.3672	64.1213	26.3672	61.6658	26.3672	63.6782	26.3672	61.8867	26.3672	63.2453	26.3672	62.1566	26.3672	62.8405	26.3672	62.4754
27.832	64.797	27.832	64.4706	27.832	65.1527	27.832	64.1806	27.832	65.5261	27.832	63.9304	27.832	65.9017	27.832	63.7204	27.832	66.2606	27.832	63.5489	27.832	66.5818	27.832	63.413	27.832	66.8442	27.832	63.3101	27.832	67.0285	27.832	63.2376	27.832	67.1196	27.832	63.1941	27.832	67.1086	27.832	63.1791	27.832	66.9942	27.832	63.1935	27.832	66.7838	27.832	63.2388	27.832	66.4929	27.832	63.3177	27.832	66.1432	27.832	63.433	27.832	65.7593	27.832	63.5874	27.832	65.3656	27.832	63.7833	27.832	64.9825	27.832	64.022	27.832	64.6253	27.832	64.3033
29.2969	66.3017	29.2969	65.9914	29.2969	66.6358	29.2969	65.7113	29.2969	66.983	29.2969	65.4652	29.2969	67.3295	29.2969	65.254	29.2969	67.658	29.2969	65.077	29.2969	67.9497	29.2969	64.9325	29.2969	68.185	29.2969	64.8185	29.2969	68.3463	29.2969	64.7336	29.2969	68.4194	29.2969	64.6769	29.2969	68.396	29.2969	64.6483	29.2969	68.2753	29.2969	64.6488	29.2969	68.0644	29.2969	64.6801	29.2969	67.7781	29.2969	64.745	29.2969	67.437	29.2969	64.8462	29.2969	67.0645	29.2969	64.9866	29.2969	66.6837	29.2969	65.1687	29.2969	66.3141	29.2969	65.3938	29.2969	65.9703	29.2969	65.6618
30.7617	67.9678	30.7617	67.6902	30.7617	68.2657	30.7617	67.4386	30.7617	68.5752	30.7617	67.2162	30.7617	68.8841	30.7617	67.024	30.7617	69.1776	30.7617	66.8616	30.7617	69.4391	30.7617	66.7282	30.7617	69.651	30.7617	66.6226	30.7617	69.7975	30.7617	66.5438	30.7617	69.8656	30.7617	66.4915	30.7617	69.8479	30.7617	66.4659	30.7617	69.7436	30.7617	66.4682	30.7617	69.5592	30.7617	66.5	30.7617	69.3078	30.7617	66.5636	30.7617	69.0077	30.7617	66.6612	30.7617	68.6791	30.7617	66.795	30.7617	68.3417	30.7617	66.9664	30.7617	68.0121	30.7617	67.1759	30.7617	67.7028	30.7617	67.4223
32.2266	69.0596	32.2266	68.8059	32.2266	69.3324	32.2266	68.5764	32.2266	69.616	32.2266	68.3742	32.2266	69.8994	32.2266	68.2005	32.2266	70.169	32.2266	68.0551	32.2266	70.4095	32.2266	67.9373	32.2266	70.6047	32.2266	67.8464	32.2266	70.74	32.2266	67.7814	32.2266	70.8039	32.2266	67.7422	32.2266	70.7899	32.2266	67.7288	32.2266	70.6979	32.2266	67.7419	32.2266	70.5346	32.2266	67.7824	32.2266	70.3129	32.2266	67.8519	32.2266	70.0494	32.2266	67.9515	32.2266	69.7622	32.2266	68.0822	32.2266	69.468	32.2266	68.2443	32.2266	69.1803	32.2266	68.4372	32.2266	68.9086	32.2266	68.6595
33.6914	69.9986	33.6914	69.7529	33.6914	70.2597	33.6914	69.528	33.6914	70.5286	33.6914	69.3272	33.6914	70.795	33.6914	69.1522	33.6914	71.0462	33.6914	69.0035	33.6914	71.268	33.6914	68.8811	33.6914	71.4457	33.6914	68.7846	33.6914	71.5656	33.6914	68.7139	33.6914	71.6172	33.6914	68.6687	33.6914	71.5947	33.6914	68.6493	33.6914	71.4983	33.6914	68.6565	33.6914	71.3347	33.6914	68.6911	33.6914	71.1163	33.6914	68.7543	33.6914	70.8593	33.6914	68.8472	33.6914	70.5809	33.6914	68.9704	33.6914	70.2969	33.6914	69.1242	33.6914	70.02	33.6914	69.3081	33.6914	69.7592	33.6914	69.5206
35.1562	70.9743	35.1562	70.7426	35.1562	71.2204	35.1562	70.5303	35.1562	71.474	35.1562	70.3405	35.1562	71.7258	35.1562	70.1746	35.1562	71.9644	35.1562	70.0333	35.1562	72.1768	35.1562	69.9167	35.1562	72.3496	35.1562	69.8246	35.1562	72.4703	35.1562	69.7566	35.1562	72.5289	35.1562	69.7129	35.1562	72.5197	35.1562	69.6937	35.1562	72.4421	35.1562	69.6999	35.1562	72.3012	35.1562	69.7327	35.1562	72.1068	35.1562	69.7936	35.1562	71.8721	35.1562	69.8845	35.1562	71.6114	35.1562	70.0068	35.1562	71.3387	35.1562	70.1614	35.1562	71.0666	35.1562	70.3478	35.1562	70.8056	35.1562	70.5639
36.6211	71.6545	36.6211	71.4273	36.6211	71.8936	36.6211	71.2168	36.6211	72.1379	36.6211	71.0261	36.6211	72.3786	36.6211	70.8574	36.6211	72.6051	36.6211	70.7116	36.6211	72.8054	36.6211	70.5892	36.6211	72.967	36.6211	70.4907	36.6211	73.0782	36.6211	70.4162	36.6211	73.1297	36.6211	70.3661	36.6211	73.1161	36.6211	70.3411	36.6211	73.0369	36.6211	70.3423	36.6211	72.8969	36.6211	70.3708	36.6211	72.7054	36.6211	70.4284	36.6211	72.4748	36.6211	70.5166	36.6211	72.2189	36.6211	70.6367	36.6211	71.951	36.6211	70.7894	36.6211	71.6833	36.6211	70.9737	36.6211	71.426	36.6211	71.1874
38.0859	72.3444	38.0859	72.1226	38.0859	72.5773	38.0859	71.9166	38.0859	72.8146	38.0859	71.7301	38.0859	73.0479	38.0859	71.5651	38.0859	73.2672	38.0859	71.4231	38.0859	73.4609	38.0859	71.3048	38.0859	73.6176	38.0859	71.2107	38.0859	73.7263	38.0859	71.1412	38.0859	73.7784	38.0859	71.0966	38.0859	73.769	38.0859	71.0774	38.0859	73.6977	38.0859	71.0844	38.0859	73.5689	38.0859	71.1185	38.0859	73.3911	38.0859	71.1811	38.0859	73.1754	38.0859	71.2733	38.0859	72.9344	38.0859	71.3961	38.0859	72.6802	38.0859	71.5497	38.0859	72.424	38.0859	71.7329	38.0859	72.1756	38.0859	71.943
39.5508	73.0368	39.5508	72.8272	39.5508	73.2556	39.5508	72.6316	39.5508	73.4772	39.5508	72.4535	39.5508	73.6937	39.5508	72.2952	39.5508	73.8958	39.5508	72.1584	39.5508	74.0731	39.5508	72.0443	39.5508	74.2149	39.5508	71.9534	39.5508	74.3113	39.5508	71.8864	39.5508	74.355	39.5508	71.8438	39.5508	74.3418	39.5508	71.8261	39.5508	74.2719	39.5508	71.834	39.5508	74.15	39.5508	71.8683	39.5508	73.9843	39.5508	71.9299	39.5508	73.7852	39.5508	72.0196	39.5508	73.5639	39.5508	72.1377	39.5508	73.3311	39.5508	72.2838	39.5508	73.0963	39.5508	72.4563	39.5508	72.8677	39.5508	72.6524
41.0156	73.5425	41.0156	73.3394	41.0156	73.7533	41.0156	73.1488	41.0156	73.9654	41.0156	72.9741	41.0156	74.1713	41.0156	72.818	41.0156	74.362	41.0156	72.6822	41.0156	74.5273	41.0156	72.568	41.0156	74.6574	41.0156	72.4763	41.0156	74.7429	41.0156	72.4078	41.0156	74.7769	41.0156	72.3631	41.0156	74.7561	41.0156	72.3427	41.0156	74.681	41.0156	72.3475	41.0156	74.5568	41.0156	72.3781	41.0156	74.3918	41.0156	72.4351	41.0156	74.1966	41.0156	72.5191	41.0156	73.9821	41.0156	72.6302	41.0156	73.7585	41.0156	72.7678	41.0156	73.5347	41.0156	72.9303	41.0156	73.3182	41.0156	73.115
42.4805	74.114	42.4805	73.9159	42.4805	74.319	42.4805	73.7294	42.4805	74.5248	42.4805	73.5583	42.4805	74.7239	42.4805	73.4053	42.4805	74.9077	42.4805	73.2724	42.4805	75.0669	42.4805	73.1611	42.4805	75.1919	42.4805	73.0726	42.4805	75.2742	42.4805	73.0075	42.4805	75.3072	42.4805	72.9665	42.4805	75.2879	42.4805	72.9502	42.4805	75.217	42.4805	72.9589	42.4805	75.0993	42.4805	72.9931	42.4805	74.9429	42.4805	73.053	42.4805	74.7576	42.4805	73.1388	42.4805	74.5539	42.4805	73.2502	42.4805	74.3411	42.4805	73.3862	42.4805	74.1275	42.4805	73.5451	42.4805	73.92	42.4805	73.7243
43.9453	74.5413	43.9453	74.3474	43.9453	74.7408	43.9453	74.1642	43.9453	74.9398	43.9453	73.9954	43.9453	75.1313	43.9453	73.844	43.9453	75.3068	43.9453	73.7124	43.9453	75.4573	43.9453	73.6024	43.9453	75.5738	43.9453	73.5152	43.9453	75.6483	43.9453	73.4517	43.9453	75.6751	43.9453	73.4127	43.9453	75.6514	43.9453	73.3987	43.9453	75.5785	43.9453	73.4097	43.9453	75.4618	43.9453	73.4459	43.9453	75.3094	43.9453	73.507	43.9453	75.1311	43.9453	73.5927	43.9453	74.9369	43.9453	73.7019	43.9453	74.7356	43.9453	73.8334	43.9453	74.5345	43.9453	73.9853	43.9453	74.3394	43.9453	74.155
45.4102	75.0646	45.4102	74.8701	45.4102	75.2631	45.4102	74.6847	45.4102	75.4598	45.4102	74.5124	45.4102	75.6474	45.4102	74.3562	45.4102	75.8178	45.4102	74.2187	45.4102	75.9623	45.4102	74.1018	45.4102	76.0723	45.4102	74.007	45.4102	76.1401	45.4102	73.9354	45.4102	76.16	45.4102	73.888	45.4102	76.1296	45.4102	73.8653	45.4102	76.0503	45.4102	73.8678	45.4102	75.9272	45.4102	73.8959	45.4102	75.7682	45.4102	73.9496	45.4102	75.5833	45.4102	74.0287	45.4102	75.3824	45.4102	74.1328	45.4102	75.1747	45.4102	74.2608	45.4102	74.9678	45.4102	74.4111	45.4102	74.7683	45.4102	74.5814
46.875	75.524	46.875	75.3291	46.875	75.7215	46.875	75.142	46.875	75.9156	46.875	74.9666	46.875	76.0993	46.875	74.8063	46.875	76.2645	46.875	74.6638	46.875	76.4029	46.875	74.5411	46.875	76.5058	46.875	74.4399	46.875	76.5659	46.875	74.3615	46.875	76.5777	46.875	74.3068	46.875	76.5389	46.875	74.2766	46.875	76.4509	46.875	74.2713	46.875	76.3188	46.875	74.2912	46.875	76.151	46.875	74.3364	46.875	75.9573	46.875	74.4071	46.875	75.7484	46.875	74.5031	46.875	75.534	46.875	74.6238	46.875	75.3226	46.875	74.7685	46.875	75.1212	46.875	74.9352
48.3398	75.9861	48.3398	75.7936	48.3398	76.1805	48.3398	75.6078	48.3398	76.3709	48.3398	75.4329	48.3398	76.5504	48.3398	75.2721	48.3398	76.7113	48.3398	75.1281	48.3398	76.8454	48.3398	75.003	48.3398	76.9446	48.3398	74.8985	48.3398	77.0018	48.3398	74.8159	48.3398	77.0118	48.3398	74.7565	48.3398	76.9722	48.3398	74.7209	48.3398	76.8844	48.3398	74.71	48.3398	76.7529	48.3398	74.7243	48.3398	76.5855	48.3398	74.7644	48.3398	76.3917	48.3398	74.8307	48.3398	76.1814	48.3398	74.9234	48.3398	75.9645	48.3398	75.0425	48.3398	75.7498	48.3398	75.1872	48.3398	75.5448	48.3398	75.3557
51.2695	76.878	51.2695	76.6899	51.2695	77.0668	51.2695	76.5076	51.2695	77.2506	51.2695	76.3354	51.2695	77.4228	51.2695	76.1768	51.2695	77.5762	51.2695	76.0348	51.2695	77.7031	51.2695	75.9119	51.2695	77.7963	51.2695	75.8099	51.2695	77.8495	51.2695	75.7304	51.2695	77.8585	51.2695	75.6748	51.2695	77.8216	51.2695	75.6437	51.2695	77.7403	51.2695	75.638	51.2695	77.6192	51.2695	75.6579	51.2695	77.4653	51.2695	75.7038	51.2695	77.2869	51.2695	75.7757	51.2695	77.0925	51.2695	75.8732	51.2695	76.8903	51.2695	75.9957	51.2695	76.6879	51.2695	76.1415	51.2695	76.4919	51.2695	76.3082
52.7344	77.2941	52.7344	77.1079	52.7344	77.4807	52.7344	76.9271	52.7344	77.6618	52.7344	76.7561	52.7344	77.8307	52.7344	76.5986	52.7344	77.9805	52.7344	76.4578	52.7344	78.1039	52.7344	76.3361	52.7344	78.1938	52.7344	76.2357	52.7344	78.2446	52.7344	76.158	52.7344	78.2521	52.7344	76.1043	52.7344	78.2151	52.7344	76.0754	52.7344	78.1354	52.7344	76.0717	52.7344	78.0176	52.7344	76.0935	52.7344	77.8683	52.7344	76.141	52.7344	77.6956	52.7344	76.2139	52.7344	77.5073	52.7344	76.3119	52.7344	77.3112	52.7344	76.434	52.7344	77.1143	52.7344	76.5785	52.7344	76.9229	52.7344	76.7427
54.1992	77.7791	54.1992	77.5995	54.1992	77.9588	54.1992	77.4252	54.1992	78.1329	54.1992	77.2604	54.1992	78.295	54.1992	77.1089	54.1992	78.4384	54.1992	76.9738	54.1992	78.5561	54.1992	76.8577	54.1992	78.6416	54.1992	76.7626	54.1992	78.6894	54.1992	76.6901	54.1992	78.696	54.1992	76.6413	54.1992	78.6606	54.1992	76.6167	54.1992	78.5852	54.1992	76.6169	54.1992	78.4743	54.1992	76.6418	54.1992	78.3344	54.1992	76.6912	54.1992	78.1731	54.1992	76.7649	54.1992	77.9974	54.1992	76.862	54.1992	77.8143	54.1992	76.9814	54.1992	77.6297	54.1992	77.1211	54.1992	77.4493	54.1992	77.2783
55.6641	78.2285	55.6641	78.0516	55.6641	78.4052	55.6641	77.8794	55.6641	78.5758	55.6641	77.7163	55.6641	78.7341	55.6641	77.566	55.6641	78.8735	55.6641	77.4317	55.6641	78.9871	55.6641	77.3159	55.6641	79.0686	55.6641	77.2206	55.6641	79.113	55.6641	77.1474	55.6641	79.1168	55.6641	77.0975	55.6641	79.0794	55.6641	77.0714	55.6641	79.0029	55.6641	77.0697	55.6641	78.8921	55.6641	77.0924	55.6641	78.7534	55.6641	77.1396	55.6641	78.5939	55.6641	77.2108	55.6641	78.4209	55.6641	77.3054	55.6641	78.2406	55.6641	77.4222	55.6641	78.0591	55.6641	77.5592	55.6641	77.8818	55.6641	77.7137
58.5938	79.0731	58.5938	78.8917	58.5938	79.2516	58.5938	78.7127	58.5938	79.421	58.5938	78.5411	58.5938	79.5751	58.5938	78.3816	58.5938	79.7073	58.5938	78.2381	58.5938	79.811	58.5938	78.114	58.5938	79.8804	58.5938	78.012	58.5938	79.9108	58.5938	77.9344	58.5938	79.8997	58.5938	77.8825	58.5938	79.8472	58.5938	77.8571	58.5938	79.7565	58.5938	77.8581	58.5938	79.6335	58.5938	77.885	58.5938	79.486	58.5938	77.9363	58.5938	79.3224	58.5938	78.0104	58.5938	79.1507	58.5938	78.1051	58.5938	78.9774	58.5938	78.2181	58.5938	78.8072	58.5938	78.347	58.5938	78.6438	58.5938	78.4896
60.0586	79.5687	60.0586	79.3893	60.0586	79.7426	60.0586	79.2096	60.0586	79.9054	60.0586	79.0343	60.0586	80.0509	60.0586	78.8675	60.0586	80.1726	60.0586	78.713	60.0586	80.2641	60.0586	78.5739	60.0586	80.3195	60.0586	78.4533	60.0586	80.3342	60.0586	78.3536	60.0586	80.3055	60.0586	78.2767	60.0586	80.2335	60.0586	78.2242	60.0586	80.1215	60.0586	78.1971	60.0586	79.9757	60.0586	78.1959	60.0586	79.8041	60.0586	78.2206	60.0586	79.6163	60.0586	78.2709	60.0586	79.4211	60.0586	78.3458	60.0586	79.2267	60.0586	78.4441	60.0586	79.0396	60.0586	78.5646	60.0586	78.8646	60.0586	78.7054
62.9883	80.3117	62.9883	80.1345	62.9883	80.4854	62.9883	79.9594	62.9883	80.6498	62.9883	79.7914	62.9883	80.7986	62.9883	79.6349	62.9883	80.9254	62.9883	79.4938	62.9883	81.0242	62.9883	79.3711	62.9883	81.0892	62.9883	79.2694	62.9883	81.1163	62.9883	79.1903	62.9883	81.1028	62.9883	79.1349	62.9883	81.0486	62.9883	79.1037	62.9883	80.9561	62.9883	79.0964	62.9883	80.8305	62.9883	79.1124	62.9883	80.6785	62.9883	79.151	62.9883	80.5084	62.9883	79.2111	62.9883	80.3284	62.9883	79.2917	62.9883	80.1463	62.9883	79.392	62.9883	79.9689	62.9883	79.5111	62.9883	79.8016	62.9883	79.6482
64.4531	80.7451	64.4531	80.5672	64.4531	80.9192	64.4531	80.391	64.4531	81.0836	64.4531	80.2217	64.4531	81.2322	64.4531	80.064	64.4531	81.3588	64.4531	79.9218	64.4531	81.4575	64.4531	79.7987	64.4531	81.5231	64.4531	79.6974	64.4531	81.5515	64.4531	79.62	64.4531	81.5407	64.4531	79.5677	64.4531	81.4907	64.4531	79.5411	64.4531	81.4043	64.4531	79.5399	64.4531	81.2863	64.4531	79.5635	64.4531	81.1435	64.4531	79.6106	64.4531	80.983	64.4531	79.6799	64.4531	80.8123	64.4531	79.7696	64.4531	80.638	64.4531	79.8783	64.4531	80.4658	64.4531	80.0042	64.4531	80.3004	64.4531	80.1456
67.3828	81.5826	67.3828	81.4052	67.3828	81.7548	67.3828	81.2281	67.3828	81.9158	67.3828	81.0565	67.3828	82.0597	67.3828	80.8953	67.3828	82.1806	67.3828	80.7487	67.3828	82.2728	67.3828	80.6206	67.3828	82.3317	67.3828	80.514	67.3828	82.3536	67.3828	80.4312	67.3828	82.3369	67.3828	80.3738	67.3828	82.2823	67.3828	80.3426	67.3828	82.1928	67.3828	80.3378	67.3828	82.0735	67.3828	80.3588	67.3828	81.9307	67.3828	80.4043	67.3828	81.7716	67.3828	80.473	67.3828	81.6029	67.3828	80.5631	67.3828	81.4307	67.3828	80.6725	67.3828	81.2603	67.3828	80.7994	67.3828	81.0959	67.3828	80.9413
