"Directivity Index"
"Sound Power DI"		"Early Reflections DI"
"Frequency [Hz]"	"[dB] Directivity Index "	"Frequency [Hz]"	"[dB] Directivity Index "
20.5078	-3.00387	20.5078	-0.378193
21.9727	-3.37902	21.9727	-0.599067
23.4375	-3.63766	23.4375	-0.982844
24.9023	-2.82188	24.9023	-0.645447
26.3672	-2.89618	26.3672	-0.802157
27.832	-2.24528	27.832	-0.590788
29.2969	-2.0482	29.2969	-0.553709
30.7617	-1.84792	30.7617	-0.495488
32.2266	-1.72315	32.2266	-0.488191
33.6914	-1.49208	33.6914	-0.418545
35.1562	-1.40918	35.1562	-0.410723
36.6211	-1.29317	36.6211	-0.3796
38.0859	-1.19126	38.0859	-0.354799
39.5508	-1.17478	39.5508	-0.363575
41.0156	-1.00568	41.0156	-0.313454
42.4805	-0.952629	42.4805	-0.303523
43.9453	-0.903071	43.9453	-0.288884
45.4102	-0.861782	45.4102	-0.279316
46.875	-0.812244	46.875	-0.266821
48.3398	-0.760602	48.3398	-0.25343
51.2695	-0.682886	51.2695	-0.233759
52.7344	-0.661821	52.7344	-0.230328
54.1992	-0.624478	54.1992	-0.221005
55.6641	-0.594444	55.6641	-0.213517
58.5938	-0.517848	58.5938	-0.189287
60.0586	-0.499779	60.0586	-0.184838
62.9883	-0.428023	62.9883	-0.161636
64.4531	-0.376149	64.4531	-0.142721
67.3828	-0.30756	67.3828	-0.118093
68.8477	-0.309466	68.8477	-0.121146
71.7773	-0.303229	71.7773	-0.120796
74.707	-0.293498	74.707	-0.122109
77.6367	-0.236406	77.6367	-0.103235
79.1016	-0.206048	79.1016	-0.092128
82.0312	-0.131635	82.0312	-0.0618649
84.9609	-0.138364	84.9609	-0.0655928
87.8906	-0.377252	87.8906	-0.16044
90.8203	-0.184851	90.8203	-0.0890053
95.2148	-0.0211636	95.2148	-0.0217115
98.1445	0.0432335	98.1445	0.00831803
101.074	-0.0675853	101.074	-0.0407134
105.469	-0.243789	105.469	-0.118686
108.398	0.0186041	108.398	0.00216133
112.793	0.0262647	112.793	4.34704e-05
117.188	0.0971944	117.188	0.0361648
120.117	0.282407	120.117	0.103806
124.512	0.337151	124.512	0.125724
128.906	0.278373	128.906	0.0868871
133.301	0.177276	133.301	0.0585074
139.16	0.211168	139.16	0.0746704
143.555	0.302908	143.555	0.12232
147.949	0.473782	147.949	0.18887
153.809	0.258386	153.809	0.110475
159.668	0.185856	159.668	0.0811159
165.527	0.235183	165.527	0.105666
171.387	0.267806	171.387	0.130155
177.246	0.380619	177.246	0.192704
183.105	0.662235	183.105	0.264117
188.965	0.458543	188.965	0.195293
196.289	0.482241	196.289	0.2444
203.613	0.767129	203.613	0.349385
210.938	0.697185	210.938	0.30878
218.262	0.481727	218.262	0.235137
225.586	0.737683	225.586	0.347882
232.91	0.791147	232.91	0.413217
241.699	1.12048	241.699	0.518736
250.488	1.22615	250.488	0.585475
259.277	1.26245	259.277	0.609581
268.066	1.35802	268.066	0.668763
276.855	1.25538	276.855	0.51608
287.109	1.35277	287.109	0.560327
297.363	1.86362	297.363	0.890655
307.617	1.85458	307.617	0.787875
319.336	1.72615	319.336	0.767308
329.59	1.71035	329.59	0.635525
341.309	1.89655	341.309	0.855895
353.027	2.08001	353.027	0.881665
366.211	1.96863	366.211	0.840189
379.395	1.94234	379.395	0.760287
392.578	1.90857	392.578	0.715745
405.762	1.5453	405.762	0.812875
420.41	1.9277	420.41	1.26855
435.059	2.96145	435.059	1.6253
451.172	3.40172	451.172	1.40392
465.82	3.18467	465.82	1.2914
483.398	3.055	483.398	1.14797
499.512	3.14438	499.512	1.27442
517.09	2.90292	517.09	1.07001
536.133	3.37022	536.133	1.38515
555.176	3.31847	555.176	1.12414
574.219	3.37843	574.219	1.19033
594.727	3.18613	594.727	1.10734
615.234	3.18581	615.234	1.09124
637.207	3.0376	637.207	0.99714
659.18	3.10896	659.18	1.1214
682.617	3.05179	682.617	1.08894
707.52	1.99107	707.52	0.283104
732.422	2.25586	732.422	0.395139
757.324	2.73888	757.324	0.648197
785.156	2.85578	785.156	0.801752
811.523	3.29077	811.523	1.13642
840.82	4.14553	840.82	1.75329
870.117	4.63621	870.117	2.01096
900.879	4.87193	900.879	2.06775
933.105	5.28322	933.105	2.42979
965.332	5.20582	965.332	2.42202
1,000.49	5.38835	1,000.49	2.48408
1,035.64	5.14699	1,035.64	2.38772
1,072.27	5.17343	1,072.27	2.4406
1,108.89	4.64998	1,108.89	2.23086
1,148.44	4.76415	1,148.44	2.31595
1,189.45	4.90058	1,189.45	2.20565
1,230.47	5.17947	1,230.47	2.38443
1,274.41	5.43253	1,274.41	2.41893
1,319.82	5.59479	1,319.82	2.42533
1,366.7	5.44416	1,366.7	2.50389
1,413.57	5.60798	1,413.57	2.51378
1,463.38	5.20781	1,463.38	2.53419
1,516.11	4.64779	1,516.11	2.29258
1,568.85	5.4573	1,568.85	2.58208
1,624.51	5.95917	1,624.51	3.15612
1,681.64	5.73265	1,681.64	3.20584
1,741.7	5.39146	1,741.7	3.12854
1,803.22	4.88715	1,803.22	2.88207
1,866.21	4.202	1,866.21	2.3465
1,932.13	4.34288	1,932.13	2.3519
1,999.51	4.55988	1,999.51	2.40053
2,069.82	5.11275	2,069.82	2.80344
2,143.07	4.59885	2,143.07	2.7205
2,219.24	3.79208	2,219.24	2.54894
2,296.88	3.04919	2,296.88	1.9413
2,378.91	2.95363	2,378.91	1.80531
2,462.4	3.92927	2,462.4	2.34444
2,548.83	4.05147	2,548.83	2.41643
2,639.65	3.94427	2,639.65	2.39466
2,731.93	4.53174	2,731.93	2.23122
2,828.61	5.21613	2,828.61	2.13278
2,928.22	5.58397	2,928.22	2.3521
3,030.76	5.67964	3,030.76	2.31711
3,137.7	5.64696	3,137.7	2.22438
3,249.02	5.9154	3,249.02	2.36763
3,363.28	6.40929	3,363.28	2.67248
3,481.93	5.89653	3,481.93	2.34077
3,604.98	6.13058	3,604.98	2.39035
3,732.42	6.68452	3,732.42	2.66094
3,864.26	6.39109	3,864.26	2.43963
4,000.49	6.56844	4,000.49	2.35983
4,141.11	6.76403	4,141.11	2.47203
4,287.6	6.3258	4,287.6	2.29042
4,438.48	6.40812	4,438.48	2.35976
4,595.21	5.91865	4,595.21	2.22331
4,756.35	5.56383	4,756.35	1.89043
4,924.8	5.62688	4,924.8	1.93058
5,097.66	5.42065	5,097.66	1.74893
5,277.83	5.54957	5,277.83	1.75158
5,463.87	6.60643	5,463.87	2.4317
5,657.23	6.53027	5,657.23	2.56299
5,856.45	6.27894	5,856.45	2.42177
6,062.99	6.37559	6,062.99	2.42754
6,276.86	6.28591	6,276.86	2.2837
6,498.05	6.22174	6,498.05	2.4011
6,726.56	6.60414	6,726.56	3.01934
6,963.87	6.81798	6,963.87	3.24438
7,209.96	6.8668	7,209.96	3.09064
7,464.84	7.04396	7,464.84	3.05338
7,727.05	7.67762	7,727.05	3.38168
7,999.51	7.87252	7,999.51	3.66471
8,282.23	8.00535	8,282.23	3.96042
8,573.73	7.90012	8,573.73	3.68689
8,876.95	7.91031	8,876.95	3.55954
9,188.96	7.99533	9,188.96	3.62641
9,514.16	8.2748	9,514.16	3.85284
9,849.61	8.50957	9,849.61	3.87895
10,196.8	8.79573	10,196.8	3.94398
10,555.7	9.01959	10,555.7	4.06284
10,927.7	9.13019	10,927.7	4.06155
11,313	9.18795	11,313	4.0777
11,712.9	9.26168	11,712.9	4.16346
12,126	9.3873	12,126	4.2204
12,553.7	9.36038	12,553.7	4.17452
12,996.1	9.44971	12,996.1	4.28121
13,454.6	9.45517	13,454.6	4.34053
13,929.2	9.37525	13,929.2	4.27463
14,419.9	9.36184	14,419.9	4.25088
14,928.2	9.34033	14,928.2	4.27242
15,455.6	9.24124	15,455.6	4.18933
16,000.5	9.17961	16,000.5	4.22191
16,564.5	9.32577	16,564.5	4.33935
17,148.9	9.54886	17,148.9	4.54606
17,752.4	9.80594	17,752.4	4.62315
18,379.4	9.93251	18,379.4	4.56714
19,026.9	10.0075	19,026.9	4.49152
19,697.8	10.0118	19,697.8	4.45341
19,999.5	9.94741	19,999.5	4.40954
