"SPL Vertical"
"On-Axis"		"10°"		"-10°"		"20°"		"-20°"		"30°"		"-30°"		"40°"		"-40°"		"50°"		"-50°"		"60°"		"-60°"		"70°"		"-70°"		"80°"		"-80°"		"90°"		"-90°"		"100°"		"-100°"		"110°"		"-110°"		"120°"		"-120°"		"130°"		"-130°"		"140°"		"-140°"		"150°"		"-150°"		"160°"		"-160°"		"170°"		"-170°"		"180°"
"Frequency / Hz"	"Sound Pressure Level / dB (re 20 µPa/V)  [2.83  V @ 1. m]"	"Frequency / Hz"	"Sound Pressure Level / dB (re 20 µPa/V)  [2.83  V @ 1. m]"	"Frequency / Hz"	"Sound Pressure Level / dB (re 20 µPa/V)  [2.83  V @ 1. m]"	"Frequency / Hz"	"Sound Pressure Level / dB (re 20 µPa/V)  [2.83  V @ 1. m]"	"Frequency / Hz"	"Sound Pressure Level / dB (re 20 µPa/V)  [2.83  V @ 1. m]"	"Frequency / Hz"	"Sound Pressure Level / dB (re 20 µPa/V)  [2.83  V @ 1. m]"	"Frequency / Hz"	"Sound Pressure Level / dB (re 20 µPa/V)  [2.83  V @ 1. m]"	"Frequency / Hz"	"Sound Pressure Level / dB (re 20 µPa/V)  [2.83  V @ 1. m]"	"Frequency / Hz"	"Sound Pressure Level / dB (re 20 µPa/V)  [2.83  V @ 1. m]"	"Frequency / Hz"	"Sound Pressure Level / dB (re 20 µPa/V)  [2.83  V @ 1. m]"	"Frequency / Hz"	"Sound Pressure Level / dB (re 20 µPa/V)  [2.83  V @ 1. m]"	"Frequency / Hz"	"Sound Pressure Level / dB (re 20 µPa/V)  [2.83  V @ 1. m]"	"Frequency / Hz"	"Sound Pressure Level / dB (re 20 µPa/V)  [2.83  V @ 1. m]"	"Frequency / Hz"	"Sound Pressure Level / dB (re 20 µPa/V)  [2.83  V @ 1. m]"	"Frequency / Hz"	"Sound Pressure Level / dB (re 20 µPa/V)  [2.83  V @ 1. m]"	"Frequency / Hz"	"Sound Pressure Level / dB (re 20 µPa/V)  [2.83  V @ 1. m]"	"Frequency / Hz"	"Sound Pressure Level / dB (re 20 µPa/V)  [2.83  V @ 1. m]"	"Frequency / Hz"	"Sound Pressure Level / dB (re 20 µPa/V)  [2.83  V @ 1. m]"	"Frequency / Hz"	"Sound Pressure Level / dB (re 20 µPa/V)  [2.83  V @ 1. m]"	"Frequency / Hz"	"Sound Pressure Level / dB (re 20 µPa/V)  [2.83  V @ 1. m]"	"Frequency / Hz"	"Sound Pressure Level / dB (re 20 µPa/V)  [2.83  V @ 1. m]"	"Frequency / Hz"	"Sound Pressure Level / dB (re 20 µPa/V)  [2.83  V @ 1. m]"	"Frequency / Hz"	"Sound Pressure Level / dB (re 20 µPa/V)  [2.83  V @ 1. m]"	"Frequency / Hz"	"Sound Pressure Level / dB (re 20 µPa/V)  [2.83  V @ 1. m]"	"Frequency / Hz"	"Sound Pressure Level / dB (re 20 µPa/V)  [2.83  V @ 1. m]"	"Frequency / Hz"	"Sound Pressure Level / dB (re 20 µPa/V)  [2.83  V @ 1. m]"	"Frequency / Hz"	"Sound Pressure Level / dB (re 20 µPa/V)  [2.83  V @ 1. m]"	"Frequency / Hz"	"Sound Pressure Level / dB (re 20 µPa/V)  [2.83  V @ 1. m]"	"Frequency / Hz"	"Sound Pressure Level / dB (re 20 µPa/V)  [2.83  V @ 1. m]"	"Frequency / Hz"	"Sound Pressure Level / dB (re 20 µPa/V)  [2.83  V @ 1. m]"	"Frequency / Hz"	"Sound Pressure Level / dB (re 20 µPa/V)  [2.83  V @ 1. m]"	"Frequency / Hz"	"Sound Pressure Level / dB (re 20 µPa/V)  [2.83  V @ 1. m]"	"Frequency / Hz"	"Sound Pressure Level / dB (re 20 µPa/V)  [2.83  V @ 1. m]"	"Frequency / Hz"	"Sound Pressure Level / dB (re 20 µPa/V)  [2.83  V @ 1. m]"	"Frequency / Hz"	"Sound Pressure Level / dB (re 20 µPa/V)  [2.83  V @ 1. m]"	"Frequency / Hz"	"Sound Pressure Level / dB (re 20 µPa/V)  [2.83  V @ 1. m]"
20.5078	58.3498	20.5078	57.635	20.5078	59.0979	20.5078	56.9668	20.5078	59.8551	20.5078	56.3491	20.5078	60.5878	20.5078	55.7795	20.5078	61.2537	20.5078	55.2533	20.5078	61.8051	20.5078	54.7686	20.5078	62.1904	20.5078	54.3296	20.5078	62.3569	20.5078	53.9498	20.5078	62.2537	20.5078	53.6523	20.5078	61.8377	20.5078	53.4677	20.5078	61.0819	20.5078	53.4257	20.5078	59.9924	20.5078	53.5436	20.5078	58.6399	20.5078	53.8119	20.5078	57.2115	20.5078	54.1889	20.5078	56.0275	20.5078	54.6064	20.5078	55.3763	20.5078	54.9845	20.5078	55.233	20.5078	55.2498	20.5078	55.3116	20.5078	55.3555
21.9727	58.2799	21.9727	58.4982	21.9727	58.1228	21.9727	58.7517	21.9727	58.0634	21.9727	59.026	21.9727	58.1428	21.9727	59.3155	21.9727	58.3936	21.9727	59.6209	21.9727	58.8264	21.9727	59.9455	21.9727	59.4245	21.9727	60.2938	21.9727	60.151	21.9727	60.6692	21.9727	60.9608	21.9727	61.0742	21.9727	61.8073	21.9727	61.5092	21.9727	62.6442	21.9727	61.9722	21.9727	63.4259	21.9727	62.4587	21.9727	64.1105	21.9727	62.9604	21.9727	64.665	21.9727	63.4649	21.9727	65.0674	21.9727	63.9554	21.9727	65.3081	21.9727	64.4108	21.9727	65.3887	21.9727	64.807	21.9727	65.3196	21.9727	65.1183
23.4375	50.3043	23.4375	49.2047	23.4375	51.4589	23.4375	48.2244	23.4375	52.6064	23.4375	47.4239	23.4375	53.688	23.4375	46.8502	23.4375	54.6464	23.4375	46.5275	23.4375	55.4249	23.4375	46.4542	23.4375	55.9675	23.4375	46.6084	23.4375	56.2229	23.4375	46.9564	23.4375	56.1507	23.4375	47.4611	23.4375	55.7341	23.4375	48.0861	23.4375	55.0033	23.4375	48.7968	23.4375	54.0758	23.4375	49.5596	23.4375	53.1944	23.4375	50.3401	23.4375	52.6615	23.4375	51.1022	23.4375	52.6015	23.4375	51.8069	23.4375	52.8405	23.4375	52.413	23.4375	53.111	23.4375	52.8781	23.4375	53.2401	23.4375	53.163
24.9023	47.5484	24.9023	47.1039	24.9023	48.1376	24.9023	46.8224	24.9023	48.859	24.9023	46.7201	24.9023	49.7085	24.9023	46.8036	24.9023	50.685	24.9023	47.0657	24.9023	51.7739	24.9023	47.4857	24.9023	52.9316	24.9023	48.0338	24.9023	54.0836	24.9023	48.6772	24.9023	55.1396	24.9023	49.3857	24.9023	56.0179	24.9023	50.1344	24.9023	56.6668	24.9023	50.9042	24.9023	57.0739	24.9023	51.6803	24.9023	57.2634	24.9023	52.4506	24.9023	57.2812	24.9023	53.2041	24.9023	57.1729	24.9023	53.9295	24.9023	56.9664	24.9023	54.6141	24.9023	56.6699	24.9023	55.244	24.9023	56.2821	24.9023	55.8042
26.3672	55.7893	26.3672	55.2471	26.3672	56.3793	26.3672	54.7648	26.3672	57.0036	26.3672	54.3531	26.3672	57.6457	26.3672	54.0222	26.3672	58.2852	26.3672	53.7808	26.3672	58.8957	26.3672	53.635	26.3672	59.4444	26.3672	53.5884	26.3672	59.8936	26.3672	53.6414	26.3672	60.2062	26.3672	53.7917	26.3672	60.3535	26.3672	54.0349	26.3672	60.326	26.3672	54.3641	26.3672	60.1417	26.3672	54.7701	26.3672	59.8472	26.3672	55.24	26.3672	59.5051	26.3672	55.7566	26.3672	59.1682	26.3672	56.2979	26.3672	58.8543	26.3672	56.8377	26.3672	58.5446	26.3672	57.3489	26.3672	58.2047	26.3672	57.8084
27.832	52.3119	27.832	52.1264	27.832	52.5097	27.832	51.9577	27.832	52.7183	27.832	51.8126	27.832	52.9414	27.832	51.699	27.832	53.1893	27.832	51.6248	27.832	53.4806	27.832	51.5969	27.832	53.8384	27.832	51.621	27.832	54.277	27.832	51.7029	27.832	54.7841	27.832	51.8492	27.832	55.3171	27.832	52.0692	27.832	55.8205	27.832	52.3729	27.832	56.2512	27.832	52.7687	27.832	56.589	27.832	53.2573	27.832	56.8292	27.832	53.8266	27.832	56.966	27.832	54.4493	27.832	56.9853	27.832	55.0849	27.832	56.8695	27.832	55.6859	27.832	56.608	27.832	56.206
29.2969	55.2165	29.2969	54.8376	29.2969	55.6124	29.2969	54.4791	29.2969	56.0254	29.2969	54.1484	29.2969	56.4564	29.2969	53.8575	29.2969	56.9054	29.2969	53.6212	29.2969	57.3688	29.2969	53.4553	29.2969	57.8376	29.2969	53.3751	29.2969	58.2963	29.2969	53.3934	29.2969	58.7236	29.2969	53.5198	29.2969	59.0961	29.2969	53.7595	29.2969	59.393	29.2969	54.1124	29.2969	59.6011	29.2969	54.5714	29.2969	59.7151	29.2969	55.1217	29.2969	59.734	29.2969	55.7408	29.2969	59.6556	29.2969	56.4	29.2969	59.4748	29.2969	57.0666	29.2969	59.1859	29.2969	57.7068	29.2969	58.7881	29.2969	58.2893
30.7617	52.2253	30.7617	51.7429	30.7617	52.7047	30.7617	51.2664	30.7617	53.1704	30.7617	50.8043	30.7617	53.6075	30.7617	50.3653	30.7617	53.996	30.7617	49.958	30.7617	54.3119	30.7617	49.5896	30.7617	54.5327	30.7617	49.2666	30.7617	54.6449	30.7617	48.995	30.7617	54.6525	30.7617	48.7829	30.7617	54.5796	30.7617	48.643	30.7617	54.4615	30.7617	48.5941	30.7617	54.3247	30.7617	48.6596	30.7617	54.1712	30.7617	48.8624	30.7617	53.978	30.7617	49.2148	30.7617	53.7125	30.7617	49.7091	30.7617	53.3496	30.7617	50.3149	30.7617	52.8796	30.7617	50.9849	30.7617	52.3105	30.7617	51.6663
32.2266	53.1124	32.2266	52.8884	32.2266	53.3423	32.2266	52.6836	32.2266	53.5608	32.2266	52.5066	32.2266	53.7484	32.2266	52.361	32.2266	53.8866	32.2266	52.2457	32.2266	53.9628	32.2266	52.1566	32.2266	53.977	32.2266	52.0881	32.2266	53.9463	32.2266	52.0337	32.2266	53.9012	32.2266	51.9873	32.2266	53.87	32.2266	51.9431	32.2266	53.859	32.2266	51.8961	32.2266	53.8447	32.2266	51.8438	32.2266	53.7861	32.2266	51.7881	32.2266	53.6463	32.2266	51.7382	32.2266	53.4097	32.2266	51.7129	32.2266	53.0887	32.2266	51.7398	32.2266	52.7209	32.2266	51.8484	32.2266	52.3594	32.2266	52.057
33.6914	53.6964	33.6914	53.3646	33.6914	54.0139	33.6914	53.026	33.6914	54.3076	33.6914	52.6859	33.6914	54.5649	33.6914	52.3471	33.6914	54.7681	33.6914	52.0095	33.6914	54.8922	33.6914	51.6699	33.6914	54.9042	33.6914	51.3231	33.6914	54.7657	33.6914	50.9627	33.6914	54.441	33.6914	50.5838	33.6914	53.9084	33.6914	50.1842	33.6914	53.1733	33.6914	49.7672	33.6914	52.2787	33.6914	49.3441	33.6914	51.3069	33.6914	48.9352	33.6914	50.3664	33.6914	48.5697	33.6914	49.5575	33.6914	48.2801	33.6914	48.9353	33.6914	48.0931	33.6914	48.4998	33.6914	48.0212	33.6914	48.2193	33.6914	48.0638
35.1562	56.0119	35.1562	55.7204	35.1562	56.3416	35.1562	55.4739	35.1562	56.7019	35.1562	55.278	35.1562	57.0845	35.1562	55.1359	35.1562	57.4791	35.1562	55.0478	35.1562	57.8724	35.1562	55.0104	35.1562	58.2469	35.1562	55.0174	35.1562	58.5797	35.1562	55.0605	35.1562	58.8432	35.1562	55.1303	35.1562	59.007	35.1562	55.2177	35.1562	59.0435	35.1562	55.3145	35.1562	58.9348	35.1562	55.4146	35.1562	58.6809	35.1562	55.5148	35.1562	58.3043	35.1562	55.6161	35.1562	57.849	35.1562	55.7247	35.1562	57.3707	35.1562	55.8529	35.1562	56.9227	35.1562	56.0186	35.1562	56.5419	35.1562	56.2424
36.6211	59.351	36.6211	59.2421	36.6211	59.4455	36.6211	59.1262	36.6211	59.5179	36.6211	59.0104	36.6211	59.562	36.6211	58.8996	36.6211	59.5751	36.6211	58.7973	36.6211	59.5592	36.6211	58.7051	36.6211	59.5206	36.6211	58.6229	36.6211	59.4668	36.6211	58.5497	36.6211	59.4006	36.6211	58.4836	36.6211	59.3164	36.6211	58.4221	36.6211	59.2026	36.6211	58.3628	36.6211	59.049	36.6211	58.3033	36.6211	58.855	36.6211	58.242	36.6211	58.6346	36.6211	58.1782	36.6211	58.4136	36.6211	58.1137	36.6211	58.2218	36.6211	58.0532	36.6211	58.0826	36.6211	58.0055	36.6211	58.005	36.6211	57.9841
38.0859	61.224	38.0859	61.0478	38.0859	61.3905	38.0859	60.872	38.0859	61.5357	38.0859	60.7039	38.0859	61.6476	38.0859	60.5484	38.0859	61.7168	38.0859	60.4084	38.0859	61.7386	38.0859	60.285	38.0859	61.715	38.0859	60.1783	38.0859	61.6539	38.0859	60.0869	38.0859	61.5633	38.0859	60.0089	38.0859	61.4445	38.0859	59.9412	38.0859	61.2887	38.0859	59.8806	38.0859	61.0829	38.0859	59.8234	38.0859	60.8225	38.0859	59.7663	38.0859	60.5214	38.0859	59.7073	38.0859	60.2122	38.0859	59.6474	38.0859	59.936	38.0859	59.5918	38.0859	59.7264	38.0859	59.5522	38.0859	59.5986	38.0859	59.547
39.5508	62.8939	39.5508	62.6939	39.5508	63.077	39.5508	62.4843	39.5508	63.2331	39.5508	62.2698	39.5508	63.3497	39.5508	62.0533	39.5508	63.4141	39.5508	61.837	39.5508	63.4167	39.5508	61.6228	39.5508	63.3561	39.5508	61.4133	39.5508	63.2417	39.5508	61.2113	39.5508	63.0902	39.5508	61.0199	39.5508	62.9153	39.5508	60.8423	39.5508	62.7156	39.5508	60.6811	39.5508	62.4749	39.5508	60.5388	39.5508	62.1761	39.5508	60.4178	39.5508	61.8198	39.5508	60.3211	39.5508	61.4312	39.5508	60.2536	39.5508	61.0526	39.5508	60.2228	39.5508	60.7264	39.5508	60.2402	39.5508	60.4801	39.5508	60.3208
41.0156	65.6493	41.0156	65.3659	41.0156	65.9128	41.0156	65.0728	41.0156	66.1424	41.0156	64.7767	41.0156	66.3202	41.0156	64.4824	41.0156	66.425	41.0156	64.1926	41.0156	66.4348	41.0156	63.909	41.0156	66.3314	41.0156	63.6328	41.0156	66.1044	41.0156	63.365	41.0156	65.7554	41.0156	63.1064	41.0156	65.2984	41.0156	62.8577	41.0156	64.7578	41.0156	62.6201	41.0156	64.1648	41.0156	62.3946	41.0156	63.555	41.0156	62.183	41.0156	62.9675	41.0156	61.9878	41.0156	62.4443	41.0156	61.8136	41.0156	62.0239	41.0156	61.6683	41.0156	61.7314	41.0156	61.5649	41.0156	61.5701	41.0156	61.5235
42.4805	66.5011	42.4805	66.2074	42.4805	66.7837	42.4805	65.9129	42.4805	67.0416	42.4805	65.6259	42.4805	67.2587	42.4805	65.3528	42.4805	67.417	42.4805	65.0991	42.4805	67.4996	42.4805	64.8697	42.4805	67.4947	42.4805	64.6692	42.4805	67.3995	42.4805	64.5015	42.4805	67.2227	42.4805	64.3702	42.4805	66.9833	42.4805	64.2777	42.4805	66.7055	42.4805	64.2253	42.4805	66.4125	42.4805	64.2133	42.4805	66.122	42.4805	64.2402	42.4805	65.8455	42.4805	64.3028	42.4805	65.5906	42.4805	64.3965	42.4805	65.3611	42.4805	64.5153	42.4805	65.1567	42.4805	64.6534	42.4805	64.9734	42.4805	64.8065
43.9453	68.5849	43.9453	68.252	43.9453	68.9041	43.9453	67.9162	43.9453	69.196	43.9453	67.5862	43.9453	69.4443	43.9453	67.2691	43.9453	69.6305	43.9453	66.9708	43.9453	69.7359	43.9453	66.6969	43.9453	69.7443	43.9453	66.4525	43.9453	69.6466	43.9453	66.2429	43.9453	69.4448	43.9453	66.0728	43.9453	69.1541	43.9453	65.9466	43.9453	68.8019	43.9453	65.8674	43.9453	68.422	43.9453	65.8367	43.9453	68.0469	43.9453	65.8539	43.9453	67.7	43.9453	65.9161	43.9453	67.3924	43.9453	66.0177	43.9453	67.1245	43.9453	66.1517	43.9453	66.8898	43.9453	66.3102	43.9453	66.6795	43.9453	66.487
45.4102	69.9663	45.4102	69.6937	45.4102	70.2229	45.4102	69.4164	45.4102	70.4503	45.4102	69.1438	45.4102	70.6335	45.4102	68.8838	45.4102	70.7571	45.4102	68.6426	45.4102	70.8069	45.4102	68.4253	45.4102	70.7735	45.4102	68.2356	45.4102	70.6554	45.4102	68.0763	45.4102	70.4615	45.4102	67.9492	45.4102	70.2102	45.4102	67.8553	45.4102	69.9257	45.4102	67.7949	45.4102	69.6324	45.4102	67.7673	45.4102	69.3492	45.4102	67.7713	45.4102	69.0879	45.4102	67.8048	45.4102	68.8539	45.4102	67.865	45.4102	68.6481	45.4102	67.9483	45.4102	68.4682	45.4102	68.0516	45.4102	68.3108	45.4102	68.1726
46.875	71.6979	46.875	71.3849	46.875	72.0019	46.875	71.0745	46.875	72.2834	46.875	70.7764	46.875	72.5267	46.875	70.4985	46.875	72.7147	46.875	70.2471	46.875	72.8311	46.875	70.0277	46.875	72.8626	46.875	69.8441	46.875	72.8029	46.875	69.6994	46.875	72.6559	46.875	69.5955	46.875	72.4362	46.875	69.533	46.875	72.1672	46.875	69.5114	46.875	71.8751	46.875	69.5291	46.875	71.5826	46.875	69.5831	46.875	71.305	46.875	69.6694	46.875	71.0497	46.875	69.7832	46.875	70.8183	46.875	69.919	46.875	70.6085	46.875	70.0718	46.875	70.4162	46.875	70.2379
48.3398	73.0614	48.3398	72.76	48.3398	73.3491	48.3398	72.4548	48.3398	73.6115	48.3398	72.1545	48.3398	73.8354	48.3398	71.8666	48.3398	74.0061	48.3398	71.598	48.3398	74.109	48.3398	71.3546	48.3398	74.1315	48.3398	71.1417	48.3398	74.0666	48.3398	70.9635	48.3398	73.9157	48.3398	70.8232	48.3398	73.6902	48.3398	70.7231	48.3398	73.4099	48.3398	70.6637	48.3398	73.0987	48.3398	70.6448	48.3398	72.7787	48.3398	70.6647	48.3398	72.4666	48.3398	70.7209	48.3398	72.1728	48.3398	70.8102	48.3398	71.9028	48.3398	70.9291	48.3398	71.6584	48.3398	71.0747	48.3398	71.4394	48.3398	71.245
51.2695	76.0143	51.2695	75.7037	51.2695	76.3027	51.2695	75.3813	51.2695	76.5572	51.2695	75.056	51.2695	76.7643	51.2695	74.7362	51.2695	76.9092	51.2695	74.4292	51.2695	76.9772	51.2695	74.1422	51.2695	76.9557	51.2695	73.8817	51.2695	76.8377	51.2695	73.6534	51.2695	76.6254	51.2695	73.4622	51.2695	76.3315	51.2695	73.3118	51.2695	75.9789	51.2695	73.2047	51.2695	75.5964	51.2695	73.1418	51.2695	75.2121	51.2695	73.1225	51.2695	74.8486	51.2695	73.1449	51.2695	74.5195	51.2695	73.2057	51.2695	74.2302	51.2695	73.301	51.2695	73.9802	51.2695	73.4273	51.2695	73.7656	51.2695	73.5821
52.7344	77.2813	52.7344	76.9682	52.7344	77.5719	52.7344	76.6431	52.7344	77.8276	52.7344	76.3157	52.7344	78.0344	52.7344	75.9946	52.7344	78.177	52.7344	75.6877	52.7344	78.2404	52.7344	75.4026	52.7344	78.2129	52.7344	75.1461	52.7344	78.0895	52.7344	74.9244	52.7344	77.8757	52.7344	74.7424	52.7344	77.5884	52.7344	74.604	52.7344	77.2536	52.7344	74.5114	52.7344	76.9001	52.7344	74.4652	52.7344	76.5532	52.7344	74.4645	52.7344	76.229	52.7344	74.5066	52.7344	75.9341	52.7344	74.5878	52.7344	75.6687	52.7344	74.7035	52.7344	75.4297	52.7344	74.849	52.7344	75.2139	52.7344	75.0201
54.1992	78.4764	54.1992	78.1546	54.1992	78.7809	54.1992	77.8269	54.1992	79.0553	54.1992	77.5032	54.1992	79.2848	54.1992	77.192	54.1992	79.4535	54.1992	76.9012	54.1992	79.5457	54.1992	76.6374	54.1992	79.5486	54.1992	76.4065	54.1992	79.4565	54.1992	76.2131	54.1992	79.2741	54.1992	76.0608	54.1992	79.0183	54.1992	75.9519	54.1992	78.7153	54.1992	75.8875	54.1992	78.3933	54.1992	75.8672	54.1992	78.0748	54.1992	75.8898	54.1992	77.7725	54.1992	75.9529	54.1992	77.49	54.1992	76.0533	54.1992	77.2262	54.1992	76.1873	54.1992	76.9797	54.1992	76.3508	54.1992	76.7504	54.1992	76.5397
55.6641	79.7048	55.6641	79.4023	55.6641	79.9893	55.6641	79.0923	55.6641	80.244	55.6641	78.7838	55.6641	80.4556	55.6641	78.4849	55.6641	80.6101	55.6641	78.2029	55.6641	80.6942	55.6641	77.9446	55.6641	80.6983	55.6641	77.7159	55.6641	80.6194	55.6641	77.5221	55.6641	80.4635	55.6641	77.3678	55.6641	80.2458	55.6641	77.2564	55.6641	79.9873	55.6641	77.1898	55.6641	79.7091	55.6641	77.169	55.6641	79.4273	55.6641	77.1934	55.6641	79.1505	55.6641	77.2613	55.6641	78.8812	55.6641	77.37	55.6641	78.6197	55.6641	77.5156	55.6641	78.3667	55.6641	77.6936	55.6641	78.1247	55.6641	77.8985
58.5938	82.1211	58.5938	81.7969	58.5938	82.4262	58.5938	81.465	58.5938	82.6995	58.5938	81.136	58.5938	82.9272	58.5938	80.8189	58.5938	83.0954	58.5938	80.5216	58.5938	83.1909	58.5938	80.2512	58.5938	83.2041	58.5938	80.0133	58.5938	83.132	58.5938	79.8128	58.5938	82.9803	58.5938	79.6535	58.5938	82.7623	58.5938	79.538	58.5938	82.4962	58.5938	79.468	58.5938	82.1998	58.5938	79.4439	58.5938	81.8879	58.5938	79.4652	58.5938	81.5717	58.5938	79.5303	58.5938	81.2599	58.5938	79.6369	58.5938	80.9592	58.5938	79.782	58.5938	80.6753	58.5938	79.962	58.5938	80.4121	58.5938	80.1732
60.0586	83.1935	60.0586	82.877	60.0586	83.488	60.0586	82.5496	60.0586	83.7483	60.0586	82.2215	60.0586	83.9617	60.0586	81.9024	60.0586	84.1151	60.0586	81.6011	60.0586	84.1964	60.0586	81.3254	60.0586	84.1966	60.0586	81.0823	60.0586	84.1131	60.0586	80.8774	60.0586	83.9513	60.0586	80.7151	60.0586	83.725	60.0586	80.5985	60.0586	83.453	60.0586	80.529	60.0586	83.1546	60.0586	80.5068	60.0586	82.8462	60.0586	80.5307	60.0586	82.5395	60.0586	80.5983	60.0586	82.2424	60.0586	80.7061	60.0586	81.9601	60.0586	80.8497	60.0586	81.6954	60.0586	81.0245	60.0586	81.4502	60.0586	81.2258
62.9883	85.1551	62.9883	84.842	62.9883	85.4485	62.9883	84.5204	62.9883	85.7097	62.9883	84.2005	62.9883	85.9251	62.9883	83.8917	62.9883	86.0807	62.9883	83.6023	62.9883	86.1632	62.9883	83.3399	62.9883	86.163	62.9883	83.1108	62.9883	86.0773	62.9883	82.9202	62.9883	85.9127	62.9883	82.7716	62.9883	85.6857	62.9883	82.6674	62.9883	85.4183	62.9883	82.608	62.9883	85.1318	62.9883	82.593	62.9883	84.8418	62.9883	82.6206	62.9883	84.5568	62.9883	82.6884	62.9883	84.2803	62.9883	82.7936	62.9883	84.0139	62.9883	82.9329	62.9883	83.7596	62.9883	83.103	62.9883	83.5204	62.9883	83.3002
64.4531	86.0687	64.4531	85.7525	64.4531	86.3659	64.4531	85.4282	64.4531	86.6322	64.4531	85.1059	64.4531	86.855	64.4531	84.7948	64.4531	87.0213	64.4531	84.5032	64.4531	87.1195	64.4531	84.2387	64.4531	87.1408	64.4531	84.0076	64.4531	87.0824	64.4531	83.8153	64.4531	86.9491	64.4531	83.6657	64.4531	86.7534	64.4531	83.5612	64.4531	86.5118	64.4531	83.5032	64.4531	86.2409	64.4531	83.4912	64.4531	85.9536	64.4531	83.5242	64.4531	85.6586	64.4531	83.6	64.4531	85.362	64.4531	83.7161	64.4531	85.0696	64.4531	83.8696	64.4531	84.7872	64.4531	84.0574	64.4531	84.5207	64.4531	84.2758
67.3828	87.9458	67.3828	87.6197	67.3828	88.2458	67.3828	87.2787	67.3828	88.5079	67.3828	86.9335	67.3828	88.7196	67.3828	86.5943	67.3828	88.8689	67.3828	86.2706	67.3828	88.9448	67.3828	85.971	67.3828	88.9401	67.3828	85.7036	67.3828	88.8535	67.3828	85.475	67.3828	88.6914	67.3828	85.2908	67.3828	88.4676	67.3828	85.1552	67.3828	88.1996	67.3828	85.0705	67.3828	87.904	67.3828	85.0379	67.3828	87.5937	67.3828	85.0566	67.3828	87.2779	67.3828	85.125	67.3828	86.9631	67.3828	85.2401	67.3828	86.655	67.3828	85.3979	67.3828	86.3588	67.3828	85.5939	67.3828	86.0798	67.3828	85.823
