"SPL Horizontal"
"On-Axis"		"10°"		"-10°"		"20°"		"-20°"		"30°"		"-30°"		"40°"		"-40°"		"50°"		"-50°"		"60°"		"-60°"		"70°"		"-70°"		"80°"		"-80°"		"90°"		"-90°"		"100°"		"-100°"		"110°"		"-110°"		"120°"		"-120°"		"130°"		"-130°"		"140°"		"-140°"		"150°"		"-150°"		"160°"		"-160°"		"170°"		"-170°"		"180°"
"Frequency / Hz"	"Sound Pressure Level / dB (re 20 µPa/V)  [2.83  V @ 1. m]"	"Frequency / Hz"	"Sound Pressure Level / dB (re 20 µPa/V)  [2.83  V @ 1. m]"	"Frequency / Hz"	"Sound Pressure Level / dB (re 20 µPa/V)  [2.83  V @ 1. m]"	"Frequency / Hz"	"Sound Pressure Level / dB (re 20 µPa/V)  [2.83  V @ 1. m]"	"Frequency / Hz"	"Sound Pressure Level / dB (re 20 µPa/V)  [2.83  V @ 1. m]"	"Frequency / Hz"	"Sound Pressure Level / dB (re 20 µPa/V)  [2.83  V @ 1. m]"	"Frequency / Hz"	"Sound Pressure Level / dB (re 20 µPa/V)  [2.83  V @ 1. m]"	"Frequency / Hz"	"Sound Pressure Level / dB (re 20 µPa/V)  [2.83  V @ 1. m]"	"Frequency / Hz"	"Sound Pressure Level / dB (re 20 µPa/V)  [2.83  V @ 1. m]"	"Frequency / Hz"	"Sound Pressure Level / dB (re 20 µPa/V)  [2.83  V @ 1. m]"	"Frequency / Hz"	"Sound Pressure Level / dB (re 20 µPa/V)  [2.83  V @ 1. m]"	"Frequency / Hz"	"Sound Pressure Level / dB (re 20 µPa/V)  [2.83  V @ 1. m]"	"Frequency / Hz"	"Sound Pressure Level / dB (re 20 µPa/V)  [2.83  V @ 1. m]"	"Frequency / Hz"	"Sound Pressure Level / dB (re 20 µPa/V)  [2.83  V @ 1. m]"	"Frequency / Hz"	"Sound Pressure Level / dB (re 20 µPa/V)  [2.83  V @ 1. m]"	"Frequency / Hz"	"Sound Pressure Level / dB (re 20 µPa/V)  [2.83  V @ 1. m]"	"Frequency / Hz"	"Sound Pressure Level / dB (re 20 µPa/V)  [2.83  V @ 1. m]"	"Frequency / Hz"	"Sound Pressure Level / dB (re 20 µPa/V)  [2.83  V @ 1. m]"	"Frequency / Hz"	"Sound Pressure Level / dB (re 20 µPa/V)  [2.83  V @ 1. m]"	"Frequency / Hz"	"Sound Pressure Level / dB (re 20 µPa/V)  [2.83  V @ 1. m]"	"Frequency / Hz"	"Sound Pressure Level / dB (re 20 µPa/V)  [2.83  V @ 1. m]"	"Frequency / Hz"	"Sound Pressure Level / dB (re 20 µPa/V)  [2.83  V @ 1. m]"	"Frequency / Hz"	"Sound Pressure Level / dB (re 20 µPa/V)  [2.83  V @ 1. m]"	"Frequency / Hz"	"Sound Pressure Level / dB (re 20 µPa/V)  [2.83  V @ 1. m]"	"Frequency / Hz"	"Sound Pressure Level / dB (re 20 µPa/V)  [2.83  V @ 1. m]"	"Frequency / Hz"	"Sound Pressure Level / dB (re 20 µPa/V)  [2.83  V @ 1. m]"	"Frequency / Hz"	"Sound Pressure Level / dB (re 20 µPa/V)  [2.83  V @ 1. m]"	"Frequency / Hz"	"Sound Pressure Level / dB (re 20 µPa/V)  [2.83  V @ 1. m]"	"Frequency / Hz"	"Sound Pressure Level / dB (re 20 µPa/V)  [2.83  V @ 1. m]"	"Frequency / Hz"	"Sound Pressure Level / dB (re 20 µPa/V)  [2.83  V @ 1. m]"	"Frequency / Hz"	"Sound Pressure Level / dB (re 20 µPa/V)  [2.83  V @ 1. m]"	"Frequency / Hz"	"Sound Pressure Level / dB (re 20 µPa/V)  [2.83  V @ 1. m]"	"Frequency / Hz"	"Sound Pressure Level / dB (re 20 µPa/V)  [2.83  V @ 1. m]"	"Frequency / Hz"	"Sound Pressure Level / dB (re 20 µPa/V)  [2.83  V @ 1. m]"	"Frequency / Hz"	"Sound Pressure Level / dB (re 20 µPa/V)  [2.83  V @ 1. m]"	"Frequency / Hz"	"Sound Pressure Level / dB (re 20 µPa/V)  [2.83  V @ 1. m]"
20.5078	58.3498	20.5078	58.5071	20.5078	58.2112	20.5078	58.6854	20.5078	58.0768	20.5078	58.8773	20.5078	57.9227	20.5078	59.0701	20.5078	57.7214	20.5078	59.2502	20.5078	57.4463	20.5078	59.4054	20.5078	57.0722	20.5078	59.5245	20.5078	56.5685	20.5078	59.5973	20.5078	55.8857	20.5078	59.6135	20.5078	54.933	20.5078	59.5627	20.5078	53.5427	20.5078	59.4343	20.5078	51.394	20.5078	59.2183	20.5078	47.7526	20.5078	58.9059	20.5078	39.8402	20.5078	58.4901	20.5078	36.2813	20.5078	57.9638	20.5078	46.8483	20.5078	57.3093	20.5078	51.2079	20.5078	56.4771	20.5078	53.7317	20.5078	55.3555
21.9727	58.2799	21.9727	58.8334	21.9727	57.7899	21.9727	59.4295	21.9727	57.3855	21.9727	60.0483	21.9727	57.0903	21.9727	60.6705	21.9727	56.9293	21.9727	61.2778	21.9727	56.9284	21.9727	61.8528	21.9727	57.1117	21.9727	62.3812	21.9727	57.4958	21.9727	62.8528	21.9727	58.0828	21.9727	63.2642	21.9727	58.8537	21.9727	63.6195	21.9727	59.7657	21.9727	63.9291	21.9727	60.7566	21.9727	64.2058	21.9727	61.7544	21.9727	64.4597	21.9727	62.6897	21.9727	64.6932	21.9727	63.5062	21.9727	64.8978	21.9727	64.1661	21.9727	65.0551	21.9727	64.652	21.9727	65.1386	21.9727	64.9643	21.9727	65.1183
23.4375	50.3043	23.4375	50.4989	23.4375	50.1199	23.4375	50.6964	23.4375	49.9443	23.4375	50.8878	23.4375	49.7624	23.4375	51.0671	23.4375	49.5422	23.4375	51.2336	23.4375	49.2368	23.4375	51.3902	23.4375	48.7914	23.4375	51.5411	23.4375	48.1632	23.4375	51.6878	23.4375	47.3712	23.4375	51.8284	23.4375	46.6072	23.4375	51.9607	23.4375	46.3336	23.4375	52.0872	23.4375	46.9697	23.4375	52.2182	23.4375	48.3023	23.4375	52.3694	23.4375	49.7779	23.4375	52.552	23.4375	51.0527	23.4375	52.7609	23.4375	52.0158	23.4375	52.9674	23.4375	52.6631	23.4375	53.1217	23.4375	53.0291	23.4375	53.163
24.9023	47.5484	24.9023	47.8906	24.9023	47.4868	24.9023	48.4185	24.9023	47.749	24.9023	49.0393	24.9023	48.2878	24.9023	49.686	24.9023	48.989	24.9023	50.3174	24.9023	49.7337	24.9023	50.9106	24.9023	50.4411	24.9023	51.4563	24.9023	51.0782	24.9023	51.957	24.9023	51.6508	24.9023	52.4243	24.9023	52.187	24.9023	52.875	24.9023	52.7176	24.9023	53.3244	24.9023	53.2582	24.9023	53.7806	24.9023	53.8037	24.9023	54.2408	24.9023	54.334	24.9023	54.6907	24.9023	54.8239	24.9023	55.1055	24.9023	55.2456	24.9023	55.4524	24.9023	55.5681	24.9023	55.6956	24.9023	55.761	24.9023	55.8042
26.3672	55.7893	26.3672	55.8484	26.3672	55.7554	26.3672	55.9231	26.3672	55.755	26.3672	56.0059	26.3672	55.7898	26.3672	56.0935	26.3672	55.8507	26.3672	56.1865	26.3672	55.9191	26.3672	56.2872	26.3672	55.9725	26.3672	56.3991	26.3672	55.994	26.3672	56.524	26.3672	55.9807	26.3672	56.6617	26.3672	55.9498	26.3672	56.8102	26.3672	55.9383	26.3672	56.9669	26.3672	55.993	26.3672	57.1293	26.3672	56.1524	26.3672	57.2954	26.3672	56.4244	26.3672	57.4605	26.3672	56.7765	26.3672	57.6152	26.3672	57.1466	26.3672	57.742	26.3672	57.4686	26.3672	57.816	26.3672	57.6953	26.3672	57.8084
27.832	52.3119	27.832	52.4736	27.832	52.1586	27.832	52.6349	27.832	52.0319	27.832	52.7934	27.832	51.9613	27.832	52.9496	27.832	51.9851	27.832	53.1037	27.832	52.1426	27.832	53.2536	27.832	52.461	27.832	53.396	27.832	52.9396	27.832	53.5278	27.832	53.543	27.832	53.6516	27.832	54.2078	27.832	53.7783	27.832	54.8616	27.832	53.9281	27.832	55.4427	27.832	54.1251	27.832	55.9117	27.832	54.3878	27.832	56.2536	27.832	54.7195	27.832	56.4703	27.832	55.1037	27.832	56.5697	27.832	55.5069	27.832	56.5569	27.832	55.8875	27.832	56.4341	27.832	56.206
29.2969	55.2165	29.2969	55.5689	29.2969	54.8493	29.2969	55.8975	29.2969	54.4853	29.2969	56.1991	29.2969	54.1532	29.2969	56.4729	29.2969	53.8916	29.2969	56.718	29.2969	53.7444	29.2969	56.9317	29.2969	53.7504	29.2969	57.1098	29.2969	53.9331	29.2969	57.2491	29.2969	54.2906	29.2969	57.3508	29.2969	54.7939	29.2969	57.4239	29.2969	55.393	29.2969	57.4845	29.2969	56.0281	29.2969	57.5523	29.2969	56.6425	29.2969	57.6434	29.2969	57.1908	29.2969	57.765	29.2969	57.6424	29.2969	57.9121	29.2969	57.9797	29.2969	58.0671	29.2969	58.196	29.2969	58.2034	29.2969	58.2946	29.2969	58.2893
30.7617	52.2253	30.7617	52.2259	30.7617	52.2206	30.7617	52.2279	30.7617	52.2046	30.7617	52.2355	30.7617	52.1673	30.7617	52.2523	30.7617	52.0967	30.7617	52.2804	30.7617	51.9819	30.7617	52.3172	30.7617	51.8165	30.7617	52.3545	30.7617	51.603	30.7617	52.3799	30.7617	51.3551	30.7617	52.3817	30.7617	51.0987	30.7617	52.3543	30.7617	50.8701	30.7617	52.2997	30.7617	50.71	30.7617	52.2253	30.7617	50.6532	30.7617	52.1397	30.7617	50.7141	30.7617	52.0504	30.7617	50.876	30.7617	51.9617	30.7617	51.0955	30.7617	51.8739	30.7617	51.3213	30.7617	51.7801	30.7617	51.5159	30.7617	51.6663
32.2266	53.1124	32.2266	52.8172	32.2266	53.3772	32.2266	52.4962	32.2266	53.6096	32.2266	52.159	32.2266	53.8099	32.2266	51.8209	32.2266	53.9794	32.2266	51.5037	32.2266	54.1206	32.2266	51.2325	32.2266	54.2365	32.2266	51.0307	32.2266	54.3304	32.2266	50.9127	32.2266	54.404	32.2266	50.8794	32.2266	54.4543	32.2266	50.9167	32.2266	54.4697	32.2266	51.0002	32.2266	54.429	32.2266	51.1029	32.2266	54.3064	32.2266	51.2054	32.2266	54.0815	32.2266	51.3034	32.2266	53.751	32.2266	51.4104	32.2266	53.3362	32.2266	51.5532	32.2266	52.8806	32.2266	51.7619	32.2266	52.4386	32.2266	52.057
33.6914	53.6964	33.6914	53.3999	33.6914	53.9412	33.6914	53.0561	33.6914	54.1282	33.6914	52.6686	33.6914	54.2491	33.6914	52.2423	33.6914	54.2933	33.6914	51.7851	33.6914	54.2483	33.6914	51.3087	33.6914	54.1012	33.6914	50.827	33.6914	53.8403	33.6914	50.3537	33.6914	53.4603	33.6914	49.9001	33.6914	52.9679	33.6914	49.4748	33.6914	52.3854	33.6914	49.0848	33.6914	51.748	33.6914	48.7358	33.6914	51.094	33.6914	48.4335	33.6914	50.4519	33.6914	48.1847	33.6914	49.8387	33.6914	48.0014	33.6914	49.2683	33.6914	47.9034	33.6914	48.7622	33.6914	47.9167	33.6914	48.3508	33.6914	48.0638
35.1562	56.0119	35.1562	55.6296	35.1562	56.4243	35.1562	55.2937	35.1562	56.8484	35.1562	55.0154	35.1562	57.2658	35.1562	54.7996	35.1562	57.6596	35.1562	54.6444	35.1562	58.0157	35.1562	54.5421	35.1562	58.3222	35.1562	54.4823	35.1562	58.5698	35.1562	54.4548	35.1562	58.7507	35.1562	54.4531	35.1562	58.8586	35.1562	54.4753	35.1562	58.8874	35.1562	54.5242	35.1562	58.8311	35.1562	54.6057	35.1562	58.6835	35.1562	54.7281	35.1562	58.4408	35.1562	54.901	35.1562	58.1051	35.1562	55.1343	35.1562	57.6889	35.1562	55.4356	35.1562	57.2167	35.1562	55.8072	35.1562	56.7224	35.1562	56.2424
36.6211	59.351	36.6211	59.268	36.6211	59.4175	36.6211	59.1715	36.6211	59.4633	36.6211	59.0646	36.6211	59.4838	36.6211	58.9504	36.6211	59.4733	36.6211	58.8324	36.6211	59.427	36.6211	58.7142	36.6211	59.3417	36.6211	58.5993	36.6211	59.2178	36.6211	58.4902	36.6211	59.0607	36.6211	58.389	36.6211	58.8807	36.6211	58.2971	36.6211	58.6924	36.6211	58.2155	36.6211	58.5114	36.6211	58.1449	36.6211	58.3516	36.6211	58.0864	36.6211	58.2217	36.6211	58.0409	36.6211	58.125	36.6211	58.0089	36.6211	58.0591	36.6211	57.99	36.6211	58.0182	36.6211	57.9823	36.6211	57.9951	36.6211	57.9841
38.0859	61.224	38.0859	61.225	38.0859	61.2111	38.0859	61.2132	38.0859	61.1861	38.0859	61.1866	38.0859	61.1469	38.0859	61.1429	38.0859	61.0907	38.0859	61.0805	38.0859	61.0141	38.0859	60.9986	38.0859	60.914	38.0859	60.8975	38.0859	60.7882	38.0859	60.78	38.0859	60.6365	38.0859	60.6505	38.0859	60.4613	38.0859	60.5151	38.0859	60.2689	38.0859	60.3799	38.0859	60.0701	38.0859	60.2489	38.0859	59.8786	38.0859	60.1232	38.0859	59.7096	38.0859	60.0012	38.0859	59.5768	38.0859	59.8801	38.0859	59.4912	38.0859	59.7598	38.0859	59.4591	38.0859	59.6451	38.0859	59.4804	38.0859	59.547
39.5508	62.8939	39.5508	62.8782	39.5508	62.8779	39.5508	62.8311	39.5508	62.8306	39.5508	62.7535	39.5508	62.7538	39.5508	62.6458	39.5508	62.6514	39.5508	62.5082	39.5508	62.5296	39.5508	62.3405	39.5508	62.396	39.5508	62.1427	39.5508	62.2591	39.5508	61.9162	39.5508	62.1257	39.5508	61.6652	39.5508	61.9987	39.5508	61.398	39.5508	61.8741	39.5508	61.127	39.5508	61.7409	39.5508	60.8677	39.5508	61.5846	39.5508	60.6362	39.5508	61.3939	39.5508	60.4471	39.5508	61.1682	39.5508	60.3124	39.5508	60.9214	39.5508	60.242	39.5508	60.679	39.5508	60.2435	39.5508	60.4707	39.5508	60.3208
41.0156	65.6493	41.0156	65.6582	41.0156	65.5914	41.0156	65.6214	41.0156	65.4818	41.0156	65.5419	41.0156	65.3178	41.0156	65.4236	41.0156	65.0977	41.0156	65.2706	41.0156	64.8204	41.0156	65.0877	41.0156	64.4866	41.0156	64.8797	41.0156	64.0996	41.0156	64.651	41.0156	63.6669	41.0156	64.4045	41.0156	63.2024	41.0156	64.1409	41.0156	62.7272	41.0156	63.8594	41.0156	62.269	41.0156	63.5579	41.0156	61.8584	41.0156	63.2348	41.0156	61.5244	41.0156	62.8911	41.0156	61.2906	41.0156	62.532	41.0156	61.1727	41.0156	62.1693	41.0156	61.1769	41.0156	61.8238	41.0156	61.2992	41.0156	61.5235
42.4805	66.5011	42.4805	66.479	42.4805	66.4882	42.4805	66.4234	42.4805	66.4397	42.4805	66.3371	42.4805	66.3567	42.4805	66.2237	42.4805	66.2421	42.4805	66.0875	42.4805	66.1004	42.4805	65.9338	42.4805	65.938	42.4805	65.7686	42.4805	65.7624	42.4805	65.5984	42.4805	65.5825	42.4805	65.4297	42.4805	65.4083	42.4805	65.2693	42.4805	65.2503	42.4805	65.1241	42.4805	65.1177	42.4805	65.0003	42.4805	65.0163	42.4805	64.903	42.4805	64.946	42.4805	64.8349	42.4805	64.9012	42.4805	64.796	42.4805	64.8724	42.4805	64.7827	42.4805	64.8501	42.4805	64.7889	42.4805	64.8283	42.4805	64.8065
43.9453	68.5849	43.9453	68.563	43.9453	68.56	43.9453	68.4959	43.9453	68.4875	43.9453	68.3867	43.9453	68.3684	43.9453	68.2401	43.9453	68.2056	43.9453	68.0621	43.9453	68.0044	43.9453	67.861	43.9453	67.7727	43.9453	67.6464	43.9453	67.5222	43.9453	67.4294	43.9453	67.2677	43.9453	67.221	43.9453	67.0265	43.9453	67.0314	43.9453	66.816	43.9453	66.8682	43.9453	66.6498	43.9453	66.7362	43.9453	66.5349	43.9453	66.6372	43.9453	66.4695	43.9453	66.5694	43.9453	66.4444	43.9453	66.5281	43.9453	66.446	43.9453	66.5063	43.9453	66.4601	43.9453	66.4953	43.9453	66.4756	43.9453	66.487
45.4102	69.9663	45.4102	69.9787	45.4102	69.9244	45.4102	69.9607	45.4102	69.8549	45.4102	69.9121	45.4102	69.7601	45.4102	69.8334	45.4102	69.6434	45.4102	69.7256	45.4102	69.5094	45.4102	69.5907	45.4102	69.3632	45.4102	69.4317	45.4102	69.2109	45.4102	69.2529	45.4102	69.0584	45.4102	69.0606	45.4102	68.9116	45.4102	68.8634	45.4102	68.7759	45.4102	68.6717	45.4102	68.6554	45.4102	68.4971	45.4102	68.5523	45.4102	68.3501	45.4102	68.4663	45.4102	68.2391	45.4102	68.3942	45.4102	68.1686	45.4102	68.3311	45.4102	68.138	45.4102	68.2729	45.4102	68.1423	45.4102	68.2188	45.4102	68.1726
46.875	71.6979	46.875	71.725	46.875	71.6413	46.875	71.7226	46.875	71.557	46.875	71.6916	46.875	71.4476	46.875	71.6338	46.875	71.317	46.875	71.5524	46.875	71.1705	46.875	71.4508	46.875	71.0143	46.875	71.3331	46.875	70.856	46.875	71.2036	46.875	70.7035	46.875	71.0668	46.875	70.565	46.875	70.9276	46.875	70.447	46.875	70.7912	46.875	70.3538	46.875	70.6626	46.875	70.2865	46.875	70.5468	46.875	70.2431	46.875	70.4479	46.875	70.2193	46.875	70.3682	46.875	70.2101	46.875	70.3081	46.875	70.2114	46.875	70.2658	46.875	70.2205	46.875	70.2379
48.3398	73.0614	48.3398	73.0957	48.3398	72.9949	48.3398	73.0974	48.3398	72.8977	48.3398	73.067	48.3398	72.7726	48.3398	73.0058	48.3398	72.6239	48.3398	72.916	48.3398	72.457	48.3398	72.8004	48.3398	72.2786	48.3398	72.6631	48.3398	72.0964	48.3398	72.5086	48.3398	71.9182	48.3398	72.3428	48.3398	71.7513	48.3398	72.1721	48.3398	71.602	48.3398	72.0031	48.3398	71.4746	48.3398	71.8423	48.3398	71.3715	48.3398	71.695	48.3398	71.2934	48.3398	71.5652	48.3398	71.2399	48.3398	71.455	48.3398	71.2098	48.3398	71.3652	48.3398	71.2015	48.3398	71.2954	48.3398	71.2136	48.3398	71.245
51.2695	76.0143	51.2695	76.042	51.2695	75.9454	51.2695	76.0277	51.2695	75.8373	51.2695	75.9722	51.2695	75.6936	51.2695	75.877	51.2695	75.5192	51.2695	75.7451	51.2695	75.3202	51.2695	75.5806	51.2695	75.1044	51.2695	75.3888	51.2695	74.8802	51.2695	75.1761	51.2695	74.6569	51.2695	74.9496	51.2695	74.4435	51.2695	74.7177	51.2695	74.2478	51.2695	74.489	51.2695	74.0754	51.2695	74.2728	51.2695	73.9293	51.2695	74.0774	51.2695	73.8099	51.2695	73.9102	51.2695	73.7162	51.2695	73.7762	51.2695	73.647	51.2695	73.6776	51.2695	73.6011	51.2695	73.6138	51.2695	73.579	51.2695	73.5821
52.7344	77.2813	52.7344	77.315	52.7344	77.2061	52.7344	77.3064	52.7344	77.0917	52.7344	77.256	52.7344	76.9417	52.7344	77.1657	52.7344	76.7613	52.7344	77.0386	52.7344	76.5572	52.7344	76.879	52.7344	76.3373	52.7344	76.6926	52.7344	76.1107	52.7344	76.4859	52.7344	75.8872	52.7344	76.2671	52.7344	75.6771	52.7344	76.045	52.7344	75.4895	52.7344	75.8291	52.7344	75.3316	52.7344	75.6289	52.7344	75.2071	52.7344	75.4524	52.7344	75.1163	52.7344	75.3054	52.7344	75.0561	52.7344	75.1907	52.7344	75.021	52.7344	75.1075	52.7344	75.0054	52.7344	75.0525	52.7344	75.0053	52.7344	75.0201
54.1992	78.4764	54.1992	78.5319	54.1992	78.3837	54.1992	78.5488	54.1992	78.2568	54.1992	78.5272	54.1992	78.1003	54.1992	78.4685	54.1992	77.9201	54.1992	78.3752	54.1992	77.7237	54.1992	78.251	54.1992	77.5194	54.1992	78.1006	54.1992	77.3162	54.1992	77.9297	54.1992	77.1229	54.1992	77.745	54.1992	76.9477	54.1992	77.5538	54.1992	76.797	54.1992	77.3639	54.1992	76.6753	54.1992	77.1831	54.1992	76.5842	54.1992	77.0184	54.1992	76.5231	54.1992	76.8752	54.1992	76.4889	54.1992	76.7564	54.1992	76.4772	54.1992	76.6624	54.1992	76.4833	54.1992	76.5913	54.1992	76.5044	54.1992	76.5397
55.6641	79.7048	55.6641	79.7452	55.6641	79.6256	55.6641	79.7464	55.6641	79.5098	55.6641	79.7096	55.6641	79.3616	55.6641	79.6377	55.6641	79.1871	55.6641	79.5345	55.6641	78.9943	55.6641	79.4054	55.6641	78.7925	55.6641	79.2563	55.6641	78.5919	55.6641	79.0939	55.6641	78.4023	55.6641	78.9249	55.6641	78.2326	55.6641	78.7561	55.6641	78.0895	55.6641	78.5934	55.6641	77.9767	55.6641	78.4423	55.6641	77.8956	55.6641	78.3071	55.6641	77.8445	55.6641	78.1902	55.6641	77.8201	55.6641	78.0925	55.6641	77.8176	55.6641	78.0128	55.6641	77.832	55.6641	77.9489	55.6641	77.8596	55.6641	77.8985
58.5938	82.1211	58.5938	82.1552	58.5938	82.0509	58.5938	82.152	58.5938	81.9471	58.5938	82.1121	58.5938	81.8136	58.5938	82.0373	58.5938	81.6557	58.5938	81.931	58.5938	81.4797	58.5938	81.7977	58.5938	81.2925	58.5938	81.6431	58.5938	81.102	58.5938	81.4736	58.5938	80.9158	58.5938	81.2961	58.5938	80.7409	58.5938	81.1174	58.5938	80.5831	58.5938	80.944	58.5938	80.4466	58.5938	80.7812	58.5938	80.3339	58.5938	80.6332	58.5938	80.2461	58.5938	80.5026	58.5938	80.1836	58.5938	80.3908	58.5938	80.1459	58.5938	80.2983	58.5938	80.1323	58.5938	80.2256	58.5938	80.1418	58.5938	80.1732
60.0586	83.1935	60.0586	83.2388	60.0586	83.1102	60.0586	83.2446	60.0586	82.9917	60.0586	83.2112	60.0586	82.8421	60.0586	83.1402	60.0586	82.6673	60.0586	83.0345	60.0586	82.4745	60.0586	82.8984	60.0586	82.2719	60.0586	82.7375	60.0586	82.0686	60.0586	82.5585	60.0586	81.8735	60.0586	82.3693	60.0586	81.6947	60.0586	82.1779	60.0586	81.5386	60.0586	81.9924	60.0586	81.4097	60.0586	81.8199	60.0586	81.3098	60.0586	81.666	60.0586	81.239	60.0586	81.5342	60.0586	81.1951	60.0586	81.4258	60.0586	81.1752	60.0586	81.3399	60.0586	81.1756	60.0586	81.2741	60.0586	81.193	60.0586	81.2258
62.9883	85.1551	62.9883	85.1881	62.9883	85.0852	62.9883	85.1827	62.9883	84.9814	62.9883	85.1391	62.9883	84.8482	62.9883	85.0593	62.9883	84.6919	62.9883	84.9466	62.9883	84.5198	62.9883	84.8059	62.9883	84.3398	62.9883	84.6433	62.9883	84.1602	62.9883	84.4663	62.9883	83.9886	62.9883	84.2828	62.9883	83.8314	62.9883	84.101	62.9883	83.6932	62.9883	83.9285	62.9883	83.5766	62.9883	83.7718	62.9883	83.4821	62.9883	83.6358	62.9883	83.409	62.9883	83.5232	62.9883	83.3552	62.9883	83.4348	62.9883	83.3186	62.9883	83.3696	62.9883	83.2975	62.9883	83.3255	62.9883	83.2913	62.9883	83.3002
64.4531	86.0687	64.4531	86.101	64.4531	86.0007	64.4531	86.0961	64.4531	85.9003	64.4531	86.0543	64.4531	85.772	64.4531	85.9774	64.4531	85.6221	64.4531	85.8687	64.4531	85.458	64.4531	85.7329	64.4531	85.2873	64.4531	85.5761	64.4531	85.118	64.4531	85.4055	64.4531	84.9568	64.4531	85.2287	64.4531	84.8092	64.4531	85.0537	64.4531	84.6788	64.4531	84.8876	64.4531	84.5673	64.4531	84.7367	64.4531	84.4749	64.4531	84.6054	64.4531	84.4006	64.4531	84.4962	64.4531	84.3434	64.4531	84.4096	64.4531	84.3024	64.4531	84.3451	64.4531	84.2772	64.4531	84.301	64.4531	84.2682	64.4531	84.2758
67.3828	87.9458	67.3828	87.9778	67.3828	87.8724	67.3828	87.9671	67.3828	87.7603	67.3828	87.9142	67.3828	87.6144	67.3828	87.8211	67.3828	87.4408	67.3828	87.6913	67.3828	87.2472	67.3828	87.53	67.3828	87.0426	67.3828	87.3437	67.3828	86.8363	67.3828	87.1405	67.3828	86.6373	67.3828	86.9293	67.3828	86.4537	67.3828	86.7196	67.3828	86.2913	67.3828	86.5207	67.3828	86.1539	67.3828	86.3406	67.3828	86.0428	67.3828	86.1855	67.3828	85.9572	67.3828	86.0588	67.3828	85.8947	67.3828	85.9614	67.3828	85.8521	67.3828	85.8918	67.3828	85.8267	67.3828	85.8469	67.3828	85.817	67.3828	85.823
