"SPL Horizontal"
"On-Axis"		"10°"		"-10°"		"20°"		"-20°"		"30°"		"-30°"		"40°"		"-40°"		"50°"		"-50°"		"60°"		"-60°"		"70°"		"-70°"		"80°"		"-80°"		"90°"		"-90°"		"100°"		"-100°"		"110°"		"-110°"		"120°"		"-120°"		"130°"		"-130°"		"140°"		"-140°"		"150°"		"-150°"		"160°"		"-160°"		"170°"		"-170°"		"180°"
"Frequency / Hz"	"Sound Pressure Level / dB (re 20 µPa/V)  [2.83  V @ 1. m]"	"Frequency / Hz"	"Sound Pressure Level / dB (re 20 µPa/V)  [2.83  V @ 1. m]"	"Frequency / Hz"	"Sound Pressure Level / dB (re 20 µPa/V)  [2.83  V @ 1. m]"	"Frequency / Hz"	"Sound Pressure Level / dB (re 20 µPa/V)  [2.83  V @ 1. m]"	"Frequency / Hz"	"Sound Pressure Level / dB (re 20 µPa/V)  [2.83  V @ 1. m]"	"Frequency / Hz"	"Sound Pressure Level / dB (re 20 µPa/V)  [2.83  V @ 1. m]"	"Frequency / Hz"	"Sound Pressure Level / dB (re 20 µPa/V)  [2.83  V @ 1. m]"	"Frequency / Hz"	"Sound Pressure Level / dB (re 20 µPa/V)  [2.83  V @ 1. m]"	"Frequency / Hz"	"Sound Pressure Level / dB (re 20 µPa/V)  [2.83  V @ 1. m]"	"Frequency / Hz"	"Sound Pressure Level / dB (re 20 µPa/V)  [2.83  V @ 1. m]"	"Frequency / Hz"	"Sound Pressure Level / dB (re 20 µPa/V)  [2.83  V @ 1. m]"	"Frequency / Hz"	"Sound Pressure Level / dB (re 20 µPa/V)  [2.83  V @ 1. m]"	"Frequency / Hz"	"Sound Pressure Level / dB (re 20 µPa/V)  [2.83  V @ 1. m]"	"Frequency / Hz"	"Sound Pressure Level / dB (re 20 µPa/V)  [2.83  V @ 1. m]"	"Frequency / Hz"	"Sound Pressure Level / dB (re 20 µPa/V)  [2.83  V @ 1. m]"	"Frequency / Hz"	"Sound Pressure Level / dB (re 20 µPa/V)  [2.83  V @ 1. m]"	"Frequency / Hz"	"Sound Pressure Level / dB (re 20 µPa/V)  [2.83  V @ 1. m]"	"Frequency / Hz"	"Sound Pressure Level / dB (re 20 µPa/V)  [2.83  V @ 1. m]"	"Frequency / Hz"	"Sound Pressure Level / dB (re 20 µPa/V)  [2.83  V @ 1. m]"	"Frequency / Hz"	"Sound Pressure Level / dB (re 20 µPa/V)  [2.83  V @ 1. m]"	"Frequency / Hz"	"Sound Pressure Level / dB (re 20 µPa/V)  [2.83  V @ 1. m]"	"Frequency / Hz"	"Sound Pressure Level / dB (re 20 µPa/V)  [2.83  V @ 1. m]"	"Frequency / Hz"	"Sound Pressure Level / dB (re 20 µPa/V)  [2.83  V @ 1. m]"	"Frequency / Hz"	"Sound Pressure Level / dB (re 20 µPa/V)  [2.83  V @ 1. m]"	"Frequency / Hz"	"Sound Pressure Level / dB (re 20 µPa/V)  [2.83  V @ 1. m]"	"Frequency / Hz"	"Sound Pressure Level / dB (re 20 µPa/V)  [2.83  V @ 1. m]"	"Frequency / Hz"	"Sound Pressure Level / dB (re 20 µPa/V)  [2.83  V @ 1. m]"	"Frequency / Hz"	"Sound Pressure Level / dB (re 20 µPa/V)  [2.83  V @ 1. m]"	"Frequency / Hz"	"Sound Pressure Level / dB (re 20 µPa/V)  [2.83  V @ 1. m]"	"Frequency / Hz"	"Sound Pressure Level / dB (re 20 µPa/V)  [2.83  V @ 1. m]"	"Frequency / Hz"	"Sound Pressure Level / dB (re 20 µPa/V)  [2.83  V @ 1. m]"	"Frequency / Hz"	"Sound Pressure Level / dB (re 20 µPa/V)  [2.83  V @ 1. m]"	"Frequency / Hz"	"Sound Pressure Level / dB (re 20 µPa/V)  [2.83  V @ 1. m]"	"Frequency / Hz"	"Sound Pressure Level / dB (re 20 µPa/V)  [2.83  V @ 1. m]"	"Frequency / Hz"	"Sound Pressure Level / dB (re 20 µPa/V)  [2.83  V @ 1. m]"	"Frequency / Hz"	"Sound Pressure Level / dB (re 20 µPa/V)  [2.83  V @ 1. m]"
20.5078	49.5086	20.5078	49.747	20.5078	49.0957	20.5078	49.8106	20.5078	48.5037	20.5078	49.6939	20.5078	47.7218	20.5078	49.3863	20.5078	46.7336	20.5078	48.8724	20.5078	45.5206	20.5078	48.1321	20.5078	44.0797	20.5078	47.1461	20.5078	42.4801	20.5078	45.9118	20.5078	41.0159	20.5078	44.492	20.5078	40.3446	20.5078	43.1282	20.5078	40.9476	20.5078	42.3419	20.5078	42.3747	20.5078	42.5864	20.5078	43.932	20.5078	43.623	20.5078	45.2866	20.5078	44.8726	20.5078	46.3483	20.5078	45.9865	20.5078	47.1114	20.5078	46.8466	20.5078	47.5904	20.5078	47.4315	20.5078	47.7996	20.5078	47.7468
21.9727	49.4013	21.9727	49.4016	21.9727	49.1973	21.9727	49.191	21.9727	48.7846	21.9727	48.7487	21.9727	48.1462	21.9727	48.0353	21.9727	47.2516	21.9727	46.9839	21.9727	46.057	21.9727	45.4809	21.9727	44.5129	21.9727	43.3249	21.9727	42.6185	21.9727	40.1466	21.9727	40.6631	21.9727	35.593	21.9727	39.7471	21.9727	34.2801	21.9727	40.8774	21.9727	39.0635	21.9727	43.0278	21.9727	42.8632	21.9727	45.091	21.9727	45.4508	21.9727	46.7706	21.9727	47.2537	21.9727	48.0595	21.9727	48.5104	21.9727	49.0007	21.9727	49.3517	21.9727	49.6328	21.9727	49.8525	21.9727	49.9807	21.9727	50.0553
23.4375	50.3233	23.4375	50.3353	23.4375	50.1162	23.4375	50.144	23.4375	49.7142	23.4375	49.7318	23.4375	49.1111	23.4375	49.0707	23.4375	48.2975	23.4375	48.1218	23.4375	47.27	23.4375	46.841	23.4375	46.0596	23.4375	45.2157	23.4375	44.8037	23.4375	43.4177	23.4375	43.8675	23.4375	42.2019	23.4375	43.7864	23.4375	42.6882	23.4375	44.7007	23.4375	44.5154	23.4375	46.1438	23.4375	46.5277	23.4375	47.6345	23.4375	48.2376	23.4375	48.9469	23.4375	49.5704	23.4375	50.0125	23.4375	50.5553	23.4375	50.8223	23.4375	51.2334	23.4375	51.3838	23.4375	51.6379	23.4375	51.7054	23.4375	51.7912
24.9023	51.3093	24.9023	51.2432	24.9023	51.1578	24.9023	50.9501	24.9023	50.7834	24.9023	50.4043	24.9023	50.1653	24.9023	49.558	24.9023	49.2634	24.9023	48.3311	24.9023	48.011	24.9023	46.5901	24.9023	46.3026	24.9023	44.1179	24.9023	43.9941	24.9023	40.7007	24.9023	41.0756	24.9023	37.8401	24.9023	38.9721	24.9023	40.2244	24.9023	40.6892	24.9023	44.0543	24.9023	43.9312	24.9023	46.9462	24.9023	46.6414	24.9023	49.0256	24.9023	48.6908	24.9023	50.5196	24.9023	50.2162	24.9023	51.5695	24.9023	51.3267	24.9023	52.2596	24.9023	52.0919	24.9023	52.6389	24.9023	52.5536	24.9023	52.7339
26.3672	51.029	26.3672	50.9448	26.3672	50.8773	26.3672	50.6118	26.3672	50.4879	26.3672	50.0004	26.3672	49.844	26.3672	49.061	26.3672	48.9137	26.3672	47.7201	26.3672	47.6525	26.3672	45.8968	26.3672	46.0284	26.3672	43.6514	26.3672	44.1528	26.3672	41.9108	26.3672	42.7223	26.3672	42.737	26.3672	43.1111	26.3672	45.3915	26.3672	45.1671	26.3672	47.9893	26.3672	47.5102	26.3672	50.0755	26.3672	49.5428	26.3672	51.6788	26.3672	51.1807	26.3672	52.8806	26.3672	52.4579	26.3672	53.7458	26.3672	53.4187	26.3672	54.3195	26.3672	54.0978	26.3672	54.6306	26.3672	54.5188	26.3672	54.6951
27.832	53.1069	27.832	53.0191	27.832	52.9704	27.832	52.6981	27.832	52.6059	27.832	52.1205	27.832	51.9957	27.832	51.247	27.832	51.1074	27.832	50.0228	27.832	49.8942	27.832	48.3951	27.832	48.3093	27.832	46.4245	27.832	46.3937	27.832	44.7371	27.832	44.6382	27.832	44.8766	27.832	44.4283	27.832	46.9161	27.832	46.2119	27.832	49.2937	27.832	48.5716	27.832	51.3187	27.832	50.6725	27.832	52.909	27.832	52.3652	27.832	54.112	27.832	53.6778	27.832	54.9825	27.832	54.6588	27.832	55.562	27.832	55.3477	27.832	55.8783	27.832	55.7717	27.832	55.9467
29.2969	54.0911	29.2969	54.0334	29.2969	53.9414	29.2969	53.7618	29.2969	53.5825	29.2969	53.2616	29.2969	53.0045	29.2969	52.513	29.2969	52.192	29.2969	51.5022	29.2969	51.1345	29.2969	50.2591	29.2969	49.8597	29.2969	48.9681	29.2969	48.5326	29.2969	48.1547	29.2969	47.6342	29.2969	48.4896	29.2969	47.8366	29.2969	49.8824	29.2969	49.1493	29.2969	51.6214	29.2969	50.896	29.2969	53.2392	29.2969	52.5761	29.2969	54.5845	29.2969	54.0114	29.2969	55.6368	29.2969	55.1683	29.2969	56.4119	29.2969	56.0561	29.2969	56.931	29.2969	56.6922	29.2969	57.2113	29.2969	57.0916	29.2969	57.2636
30.7617	54.5952	30.7617	54.4869	30.7617	54.4715	30.7617	54.1356	30.7617	54.1125	30.7617	53.5153	30.7617	53.5003	30.7617	52.5825	30.7617	52.5994	30.7617	51.2761	30.7617	51.3541	30.7617	49.5401	30.7617	49.6922	30.7617	47.4673	30.7617	47.5868	30.7617	45.8717	30.7617	45.4165	30.7617	46.4285	30.7617	44.8152	30.7617	48.72	30.7617	46.7399	30.7617	51.1211	30.7617	49.3755	30.7617	53.0995	30.7617	51.6668	30.7617	54.6301	30.7617	53.4832	30.7617	55.7734	30.7617	54.8831	30.7617	56.5864	30.7617	55.9329	30.7617	57.1105	30.7617	56.6811	30.7617	57.3729	30.7617	57.16	30.7617	57.3882
32.2266	55.5735	32.2266	55.5094	32.2266	55.4201	32.2266	55.2214	32.2266	55.0449	32.2266	54.6924	32.2266	54.4328	32.2266	53.8966	32.2266	53.5588	32.2266	52.808	32.2266	52.3949	32.2266	51.4368	32.2266	50.9411	32.2266	49.9535	32.2266	49.3429	32.2266	48.9582	32.2266	48.1814	32.2266	49.3193	32.2266	48.4199	32.2266	50.9129	32.2266	50.0355	32.2266	52.8343	32.2266	52.053	32.2266	54.5684	32.2266	53.8976	32.2266	55.9833	32.2266	55.4242	32.2266	57.0778	32.2266	56.6305	32.2266	57.8793	32.2266	57.5443	32.2266	58.4155	32.2266	58.1925	32.2266	58.7068	32.2266	58.5955	32.2266	58.7655
33.6914	56.0689	33.6914	55.9193	33.6914	55.9943	33.6914	55.5366	33.6914	55.6958	33.6914	54.9052	33.6914	55.1671	33.6914	54.0096	33.6914	54.3999	33.6914	52.8622	33.6914	53.4005	33.6914	51.5877	33.6914	52.239	33.6914	50.6097	33.6914	51.1656	33.6914	50.652	33.6914	50.7196	33.6914	51.9081	33.6914	51.3685	33.6914	53.7176	33.6914	52.8554	33.6914	55.497	33.6914	54.5779	33.6914	57.0272	33.6914	56.1794	33.6914	58.2661	33.6914	57.5404	33.6914	59.2256	33.6914	58.6403	33.6914	59.9279	33.6914	59.489	33.6914	60.3938	33.6914	60.1019	33.6914	60.6383	33.6914	60.4927	33.6914	60.6704
35.1562	57.0221	35.1562	56.8927	35.1562	56.9268	35.1562	56.5322	35.1562	56.6054	35.1562	55.9291	35.1562	56.0499	35.1562	55.0752	35.1562	55.2509	35.1562	53.9947	35.1562	54.2147	35.1562	52.8259	35.1562	53.0154	35.1562	51.9748	35.1562	51.9202	35.1562	52.0675	35.1562	51.4998	35.1562	53.2463	35.1562	52.2161	35.1562	54.9433	35.1562	53.7581	35.1562	56.6352	35.1562	55.5062	35.1562	58.1067	35.1562	57.1165	35.1562	59.3068	35.1562	58.4803	35.1562	60.2398	35.1562	59.5823	35.1562	60.9235	35.1562	60.4339	35.1562	61.3756	35.1562	61.0514	35.1562	61.6094	35.1562	61.4481	35.1562	61.6329
36.6211	58.9191	36.6211	58.7844	36.6211	58.8649	36.6211	58.4615	36.6211	58.6209	36.6211	57.9551	36.6211	58.1865	36.6211	57.2864	36.6211	57.5676	36.6211	56.5216	36.6211	56.794	36.6211	55.8203	36.6211	55.956	36.6211	55.4665	36.6211	55.2617	36.6211	55.7416	36.6211	55.041	36.6211	56.6506	36.6211	55.5333	36.6211	57.9112	36.6211	56.6219	36.6211	59.227	36.6211	57.9684	36.6211	60.4266	36.6211	59.3028	36.6211	61.4384	36.6211	60.4911	36.6211	62.2413	36.6211	61.4839	36.6211	62.8348	36.6211	62.2695	36.6211	63.2252	36.6211	62.8504	36.6211	63.4192	36.6211	63.2326	36.6211	63.4214
38.0859	60.301	38.0859	60.2265	38.0859	60.2	38.0859	59.978	38.0859	59.9219	38.0859	59.5605	38.0859	59.4667	38.0859	58.991	38.0859	58.8421	38.0859	58.3189	38.0859	58.08	38.0859	57.6612	38.0859	57.2698	38.0859	57.2329	38.0859	56.6061	38.0859	57.2896	38.0859	56.3841	38.0859	57.9284	38.0859	56.8168	38.0859	58.9806	38.0859	57.8107	38.0859	60.1769	38.0859	59.068	38.0859	61.3201	38.0859	60.3349	38.0859	62.3103	38.0859	61.4761	38.0859	63.1087	38.0859	62.4367	38.0859	63.7054	38.0859	63.2001	38.0859	64.1022	38.0859	63.7652	38.0859	64.304	38.0859	64.1356	38.0859	64.3146
39.5508	61.3043	39.5508	61.212	39.5508	61.2381	39.5508	60.964	39.5508	61.0146	39.5508	60.5705	39.5508	60.6393	39.5508	60.0603	39.5508	60.1289	39.5508	59.5002	39.5508	59.5249	39.5508	59.0211	39.5508	58.9171	39.5508	58.8186	39.5508	58.4667	39.5508	59.0677	39.5508	58.3815	39.5508	59.7804	39.5508	58.7941	39.5508	60.7902	39.5508	59.6418	39.5508	61.888	39.5508	60.7234	39.5508	62.9247	39.5508	61.8443	39.5508	63.8211	39.5508	62.882	39.5508	64.5436	39.5508	63.7754	39.5508	65.0815	39.5508	64.4987	39.5508	65.4343	39.5508	65.0437	39.5508	65.605	39.5508	65.4093	39.5508	65.5962
41.0156	62.856	41.0156	62.8095	41.0156	62.7511	41.0156	62.6157	41.0156	62.4921	41.0156	62.2826	41.0156	62.0782	41.0156	61.8289	41.0156	61.5148	41.0156	61.2963	41.0156	60.8241	41.0156	60.7682	41.0156	60.0659	41.0156	60.3824	41.0156	59.3706	41.0156	60.3035	41.0156	58.9544	41.0156	60.6308	41.0156	59.0383	41.0156	61.3145	41.0156	59.6674	41.0156	62.1946	41.0156	60.6611	41.0156	63.1068	41.0156	61.7762	41.0156	63.9392	41.0156	62.841	41.0156	64.6316	41.0156	63.7675	41.0156	65.1566	41.0156	64.5193	41.0156	65.5042	41.0156	65.0851	41.0156	65.6719	41.0156	65.4641	41.0156	65.659
42.4805	63.2106	42.4805	63.1511	42.4805	63.1298	42.4805	62.9546	42.4805	62.909	42.4805	62.6311	42.4805	62.5537	42.4805	62.2046	42.4805	62.0803	42.4805	61.7276	42.4805	61.5282	42.4805	61.2982	42.4805	60.9792	42.4805	61.0646	42.4805	60.5739	42.4805	61.1781	42.4805	60.4894	42.4805	61.6932	42.4805	60.8429	42.4805	62.5182	42.4805	61.5938	42.4805	63.4855	42.4805	62.5761	42.4805	64.4467	42.4805	63.6146	42.4805	65.3081	42.4805	64.589	42.4805	66.0211	42.4805	65.4341	42.4805	66.5648	42.4805	66.1197	42.4805	66.932	42.4805	66.6337	42.4805	67.1219	42.4805	66.9723	42.4805	67.1351
43.9453	64.3267	43.9453	64.251	43.9453	64.2618	43.9453	64.0373	43.9453	64.0581	43.9453	63.6956	43.9453	63.7228	43.9453	63.2513	43.9453	63.2741	43.9453	62.76	43.9453	62.7522	43.9453	62.3253	43.9453	62.2367	43.9453	62.101	43.9453	61.8595	43.9453	62.2379	43.9453	61.7831	43.9453	62.7806	43.9453	62.1154	43.9453	63.6259	43.9453	62.8236	43.9453	64.6019	43.9453	63.7593	43.9453	65.563	43.9453	64.7584	43.9453	66.419	43.9453	65.7041	43.9453	67.1244	43.9453	66.5302	43.9453	67.6601	43.9453	67.2041	43.9453	68.0201	43.9453	67.7121	43.9453	68.2041	43.9453	68.049	43.9453	68.2133
45.4102	65.348	45.4102	65.2789	45.4102	65.2906	45.4102	65.0883	45.4102	65.1082	45.4102	64.7903	45.4102	64.8091	45.4102	64.4157	45.4102	64.4138	45.4102	64.0239	45.4102	63.9643	45.4102	63.7131	45.4102	63.537	45.4102	63.6116	45.4102	63.2489	45.4102	63.8272	45.4102	63.2332	45.4102	64.3758	45.4102	63.5717	45.4102	65.166	45.4102	64.2341	45.4102	66.0596	45.4102	65.0988	45.4102	66.9372	45.4102	66.0276	45.4102	67.721	45.4102	66.916	45.4102	68.3684	45.4102	67.7006	45.4102	68.8595	45.4102	68.3476	45.4102	69.1865	45.4102	68.8409	45.4102	69.3475	45.4102	69.1736	45.4102	69.3429
46.875	66.4192	46.875	66.3542	46.875	66.3662	46.875	66.177	46.875	66.1968	46.875	65.9039	46.875	65.9203	46.875	65.5679	46.875	65.5586	46.875	65.2292	46.875	65.1546	46.875	64.9809	46.875	64.782	46.875	64.9368	46.875	64.5475	46.875	65.1842	46.875	64.5665	46.875	65.7282	46.875	64.9055	46.875	66.4843	46.875	65.536	46.875	67.3308	46.875	66.352	46.875	68.1614	46.875	67.2313	46.875	68.9043	46.875	68.078	46.875	69.519	46.875	68.8311	46.875	69.9852	46.875	69.4565	46.875	70.2942	46.875	69.9366	46.875	70.4435	46.875	70.2633	46.875	70.4329
48.3398	67.4763	48.3398	67.4292	48.3398	67.4227	48.3398	67.289	48.3398	67.2695	48.3398	67.0741	48.3398	67.0273	48.3398	66.8191	48.3398	66.7191	48.3398	66.5804	48.3398	66.3875	48.3398	66.4369	48.3398	66.1	48.3398	66.4745	48.3398	65.9472	48.3398	66.752	48.3398	66.0192	48.3398	67.2656	48.3398	66.3633	48.3398	67.9492	48.3398	66.9529	48.3398	68.7083	48.3398	67.7027	48.3398	69.4565	48.3398	68.5119	48.3398	70.1312	48.3398	69.2971	48.3398	70.6936	48.3398	70.0016	48.3398	71.1222	48.3398	70.5913	48.3398	71.4062	48.3398	71.0476	48.3398	71.5412	48.3398	71.3607	48.3398	71.5259
51.2695	69.9328	51.2695	69.909	51.2695	69.8813	51.2695	69.8168	51.2695	69.7555	51.2695	69.6717	51.2695	69.5646	51.2695	69.5009	51.2695	69.3283	51.2695	69.3459	51.2695	69.081	51.2695	69.2612	51.2695	68.8742	51.2695	69.3057	51.2695	68.7732	51.2695	69.5225	51.2695	68.8417	51.2695	69.9183	51.2695	69.1165	51.2695	70.457	51.2695	69.5867	51.2695	71.0751	51.2695	70.1979	51.2695	71.7041	51.2695	70.8759	51.2695	72.2871	51.2695	71.5508	51.2695	72.7838	51.2695	72.169	51.2695	73.1684	51.2695	72.6947	51.2695	73.4266	51.2695	73.1056	51.2695	73.551	51.2695	73.389	51.2695	73.5384
52.7344	71.1744	52.7344	71.1579	52.7344	71.1218	52.7344	71.0778	52.7344	71.0014	52.7344	70.9479	52.7344	70.822	52.7344	70.792	52.7344	70.6023	52.7344	70.646	52.7344	70.3738	52.7344	70.5582	52.7344	70.1825	52.7344	70.5813	52.7344	70.0862	52.7344	70.7569	52.7344	70.1412	52.7344	71.0968	52.7344	70.3815	52.7344	71.575	52.7344	70.801	52.7344	72.1368	52.7344	71.3548	52.7344	72.7196	52.7344	71.9773	52.7344	73.2676	52.7344	72.6039	52.7344	73.7398	52.7344	73.1829	52.7344	74.109	52.7344	73.6781	52.7344	74.3592	52.7344	74.0663	52.7344	74.4818	52.7344	74.3339	52.7344	74.4734
54.1992	72.3459	54.1992	72.3366	54.1992	72.2898	54.1992	72.2661	54.1992	72.1701	54.1992	72.146	54.1992	71.9955	54.1992	71.9965	54.1992	71.7831	54.1992	71.8493	54.1992	71.5615	54.1992	71.7469	54.1992	71.372	54.1992	71.7385	54.1992	71.2663	54.1992	71.8659	54.1992	71.296	54.1992	72.1467	54.1992	71.4947	54.1992	72.5642	54.1992	71.8615	54.1992	73.0722	54.1992	72.36	54.1992	73.6121	54.1992	72.9319	54.1992	74.129	54.1992	73.5166	54.1992	74.5801	54.1992	74.063	54.1992	74.9362	54.1992	74.534	54.1992	75.1796	54.1992	74.9052	54.1992	75.3004	54.1992	75.1614	54.1992	75.2944
55.6641	73.3449	55.6641	73.3214	55.6641	73.3037	55.6641	73.2376	55.6641	73.1995	55.6641	73.1053	55.6641	73.0406	55.6641	72.9451	55.6641	72.8436	55.6641	72.7891	55.6641	72.6357	55.6641	72.6805	55.6641	72.4561	55.6641	72.6686	55.6641	72.3539	55.6641	72.7948	55.6641	72.3786	55.6641	73.0758	55.6641	72.5631	55.6641	73.4937	55.6641	72.9092	55.6641	74.0018	55.6641	73.3841	55.6641	74.5415	55.6641	73.9335	55.6641	75.0582	55.6641	74.4989	55.6641	75.5095	55.6641	75.0302	55.6641	75.8666	55.6641	75.49	55.6641	76.1116	55.6641	75.8529	55.6641	76.2347	55.6641	76.1033	55.6641	76.2319
58.5938	75.1744	58.5938	75.146	58.5938	75.1594	58.5938	75.0789	58.5938	75.1028	58.5938	74.985	58.5938	75.013	58.5938	74.8845	58.5938	74.9053	58.5938	74.8063	58.5938	74.8031	58.5938	74.7863	58.5938	74.737	58.5938	74.8606	58.5938	74.7412	58.5938	75.0557	58.5938	74.8469	58.5938	75.3769	58.5938	75.0722	58.5938	75.8041	58.5938	75.4143	58.5938	76.2977	58.5938	75.8495	58.5938	76.81	58.5938	76.3393	58.5938	77.296	58.5938	76.8406	58.5938	77.7197	58.5938	77.3138	58.5938	78.0551	58.5938	77.7268	58.5938	78.2858	58.5938	78.0556	58.5938	78.4024	58.5938	78.284	58.5938	78.4014
60.0586	76.3085	60.0586	76.2977	60.0586	76.2804	60.0586	76.2524	60.0586	76.2151	60.0586	76.1834	60.0586	76.1203	60.0586	76.1086	60.0586	76.0099	60.0586	76.0529	60.0586	75.9047	60.0586	76.0465	60.0586	75.8319	60.0586	76.1197	60.0586	75.8219	60.0586	76.2944	60.0586	75.9033	60.0586	76.576	60.0586	76.0939	60.0586	76.9493	60.0586	76.3943	60.0586	77.382	60.0586	76.7859	60.0586	77.8335	60.0586	77.2351	60.0586	78.2641	60.0586	77.7024	60.0586	78.6402	60.0586	78.1499	60.0586	78.9368	60.0586	78.5457	60.0586	79.1374	60.0586	78.8658	60.0586	79.2321	60.0586	79.0932	60.0586	79.2171
62.9883	78.3059	62.9883	78.2993	62.9883	78.2824	62.9883	78.2659	62.9883	78.2303	62.9883	78.2147	62.9883	78.1567	62.9883	78.1607	62.9883	78.0738	62.9883	78.1244	62.9883	77.9993	62.9883	78.1305	62.9883	77.9555	62.9883	78.2036	62.9883	77.9671	62.9883	78.3623	62.9883	78.0564	62.9883	78.6122	62.9883	78.2374	62.9883	78.9425	62.9883	78.5104	62.9883	79.328	62.9883	78.8605	62.9883	79.7345	62.9883	79.2603	62.9883	80.1268	62.9883	79.6769	62.9883	80.4736	62.9883	80.077	62.9883	80.7509	62.9883	80.4319	62.9883	80.9416	62.9883	80.7187	62.9883	81.0357	62.9883	80.9212	62.9883	81.0286
64.4531	79.2334	64.4531	79.222	64.4531	79.2193	64.4531	79.1886	64.4531	79.1811	64.4531	79.1417	64.4531	79.1249	64.4531	79.095	64.4531	79.0614	64.4531	79.0672	64.4531	79.0064	64.4531	79.0803	64.4531	78.9792	64.4531	79.1561	64.4531	79.0011	64.4531	79.3105	64.4531	79.0915	64.4531	79.5484	64.4531	79.2626	64.4531	79.8604	64.4531	79.5154	64.4531	80.2237	64.4531	79.8377	64.4531	80.6076	64.4531	80.2061	64.4531	80.9795	64.4531	80.5914	64.4531	81.31	64.4531	80.963	64.4531	81.5757	64.4531	81.2938	64.4531	81.76	64.4531	81.5617	64.4531	81.8527	64.4531	81.7505	64.4531	81.8493
67.3828	81.0345	67.3828	81.0293	67.3828	81.0209	67.3828	81.0086	67.3828	80.9894	67.3828	80.9798	67.3828	80.9446	67.3828	80.9541	67.3828	80.8953	67.3828	80.9466	67.3828	80.8539	67.3828	80.974	67.3828	80.8362	67.3828	81.053	67.3828	80.8592	67.3828	81.1957	67.3828	80.9387	67.3828	81.406	67.3828	81.0854	67.3828	81.6769	67.3828	81.3016	67.3828	81.991	67.3828	81.5788	67.3828	82.3235	67.3828	81.8993	67.3828	82.6468	67.3828	82.2386	67.3828	82.9349	67.3828	82.5706	67.3828	83.1663	67.3828	82.8704	67.3828	83.3251	67.3828	83.1168	67.3828	83.4014	67.3828	83.2939	67.3828	83.3908
