"SPL Vertical"
"On-Axis"		"10°"		"-10°"		"20°"		"-20°"		"30°"		"-30°"		"40°"		"-40°"		"50°"		"-50°"		"60°"		"-60°"		"70°"		"-70°"		"80°"		"-80°"		"90°"		"-90°"		"100°"		"-100°"		"110°"		"-110°"		"120°"		"-120°"		"130°"		"-130°"		"140°"		"-140°"		"150°"		"-150°"		"160°"		"-160°"		"170°"		"-170°"		"180°"
"Frequency / Hz"	"Sound Pressure Level / dB (re 20 µPa/V)  [2.83  V @ 1. m]"	"Frequency / Hz"	"Sound Pressure Level / dB (re 20 µPa/V)  [2.83  V @ 1. m]"	"Frequency / Hz"	"Sound Pressure Level / dB (re 20 µPa/V)  [2.83  V @ 1. m]"	"Frequency / Hz"	"Sound Pressure Level / dB (re 20 µPa/V)  [2.83  V @ 1. m]"	"Frequency / Hz"	"Sound Pressure Level / dB (re 20 µPa/V)  [2.83  V @ 1. m]"	"Frequency / Hz"	"Sound Pressure Level / dB (re 20 µPa/V)  [2.83  V @ 1. m]"	"Frequency / Hz"	"Sound Pressure Level / dB (re 20 µPa/V)  [2.83  V @ 1. m]"	"Frequency / Hz"	"Sound Pressure Level / dB (re 20 µPa/V)  [2.83  V @ 1. m]"	"Frequency / Hz"	"Sound Pressure Level / dB (re 20 µPa/V)  [2.83  V @ 1. m]"	"Frequency / Hz"	"Sound Pressure Level / dB (re 20 µPa/V)  [2.83  V @ 1. m]"	"Frequency / Hz"	"Sound Pressure Level / dB (re 20 µPa/V)  [2.83  V @ 1. m]"	"Frequency / Hz"	"Sound Pressure Level / dB (re 20 µPa/V)  [2.83  V @ 1. m]"	"Frequency / Hz"	"Sound Pressure Level / dB (re 20 µPa/V)  [2.83  V @ 1. m]"	"Frequency / Hz"	"Sound Pressure Level / dB (re 20 µPa/V)  [2.83  V @ 1. m]"	"Frequency / Hz"	"Sound Pressure Level / dB (re 20 µPa/V)  [2.83  V @ 1. m]"	"Frequency / Hz"	"Sound Pressure Level / dB (re 20 µPa/V)  [2.83  V @ 1. m]"	"Frequency / Hz"	"Sound Pressure Level / dB (re 20 µPa/V)  [2.83  V @ 1. m]"	"Frequency / Hz"	"Sound Pressure Level / dB (re 20 µPa/V)  [2.83  V @ 1. m]"	"Frequency / Hz"	"Sound Pressure Level / dB (re 20 µPa/V)  [2.83  V @ 1. m]"	"Frequency / Hz"	"Sound Pressure Level / dB (re 20 µPa/V)  [2.83  V @ 1. m]"	"Frequency / Hz"	"Sound Pressure Level / dB (re 20 µPa/V)  [2.83  V @ 1. m]"	"Frequency / Hz"	"Sound Pressure Level / dB (re 20 µPa/V)  [2.83  V @ 1. m]"	"Frequency / Hz"	"Sound Pressure Level / dB (re 20 µPa/V)  [2.83  V @ 1. m]"	"Frequency / Hz"	"Sound Pressure Level / dB (re 20 µPa/V)  [2.83  V @ 1. m]"	"Frequency / Hz"	"Sound Pressure Level / dB (re 20 µPa/V)  [2.83  V @ 1. m]"	"Frequency / Hz"	"Sound Pressure Level / dB (re 20 µPa/V)  [2.83  V @ 1. m]"	"Frequency / Hz"	"Sound Pressure Level / dB (re 20 µPa/V)  [2.83  V @ 1. m]"	"Frequency / Hz"	"Sound Pressure Level / dB (re 20 µPa/V)  [2.83  V @ 1. m]"	"Frequency / Hz"	"Sound Pressure Level / dB (re 20 µPa/V)  [2.83  V @ 1. m]"	"Frequency / Hz"	"Sound Pressure Level / dB (re 20 µPa/V)  [2.83  V @ 1. m]"	"Frequency / Hz"	"Sound Pressure Level / dB (re 20 µPa/V)  [2.83  V @ 1. m]"	"Frequency / Hz"	"Sound Pressure Level / dB (re 20 µPa/V)  [2.83  V @ 1. m]"	"Frequency / Hz"	"Sound Pressure Level / dB (re 20 µPa/V)  [2.83  V @ 1. m]"	"Frequency / Hz"	"Sound Pressure Level / dB (re 20 µPa/V)  [2.83  V @ 1. m]"	"Frequency / Hz"	"Sound Pressure Level / dB (re 20 µPa/V)  [2.83  V @ 1. m]"	"Frequency / Hz"	"Sound Pressure Level / dB (re 20 µPa/V)  [2.83  V @ 1. m]"
20.5078	49.5086	20.5078	49.4461	20.5078	49.4188	20.5078	49.2308	20.5078	49.1724	20.5078	48.8568	20.5078	48.7606	20.5078	48.3127	20.5078	48.1708	20.5078	47.5812	20.5078	47.3884	20.5078	46.6412	20.5078	46.4034	20.5078	45.4752	20.5078	45.2284	20.5078	44.0946	20.5078	43.9461	20.5078	42.6146	20.5078	42.802	20.5078	41.4069	20.5078	42.2459	20.5078	41.1021	20.5078	42.6029	20.5078	41.9232	20.5078	43.6424	20.5078	43.3282	20.5078	44.8786	20.5078	44.7539	20.5078	45.9963	20.5078	45.9524	20.5078	46.8678	20.5078	46.8544	20.5078	47.4541	20.5078	47.4508	20.5078	47.7473	20.5078	47.7468
21.9727	49.4013	21.9727	49.326	21.9727	49.2725	21.9727	49.0418	21.9727	48.9326	21.9727	48.532	21.9727	48.362	21.9727	47.7647	21.9727	47.525	21.9727	46.6876	21.9727	46.3636	21.9727	45.2176	21.9727	44.789	21.9727	43.2308	21.9727	42.6817	21.9727	40.602	21.9727	40.0051	21.9727	37.7101	21.9727	37.6471	21.9727	37.2315	21.9727	38.3686	21.9727	40.0578	21.9727	41.3025	21.9727	43.07	21.9727	44.0304	21.9727	45.4145	21.9727	46.1324	21.9727	47.1605	21.9727	47.692	21.9727	48.4306	21.9727	48.8098	21.9727	49.3076	21.9727	49.5528	21.9727	49.8405	21.9727	49.9611	21.9727	50.0553
23.4375	50.3233	23.4375	50.2492	23.4375	50.2086	23.4375	49.9837	23.4375	49.9003	23.4375	49.5164	23.4375	49.3861	23.4375	48.8298	23.4375	48.6475	23.4375	47.9008	23.4375	47.6637	23.4375	46.7118	23.4375	46.429	23.4375	45.2879	23.4375	45.0103	23.4375	43.8151	23.4375	43.6982	23.4375	42.8567	23.4375	43.1558	23.4375	43.1507	23.4375	43.8891	23.4375	44.5765	23.4375	45.4589	23.4375	46.3484	23.4375	47.1632	23.4375	47.9823	23.4375	48.6642	23.4375	49.3309	23.4375	49.8703	23.4375	50.3738	23.4375	50.774	23.4375	51.1227	23.4375	51.3876	23.4375	51.592	23.4375	51.7239	23.4375	51.7912
24.9023	51.3093	24.9023	51.2037	24.9023	51.1965	24.9023	50.8754	24.9023	50.8565	24.9023	50.3054	24.9023	50.2654	24.9023	49.4566	24.9023	49.3806	24.9023	48.2649	24.9023	48.1312	24.9023	46.6239	24.9023	46.4042	24.9023	44.3643	24.9023	44.0378	24.9023	41.3052	24.9023	40.9909	24.9023	38.2271	24.9023	38.8112	24.9023	39.2023	24.9023	40.7867	24.9023	42.848	24.9023	44.1764	24.9023	45.924	24.9023	46.9243	24.9023	48.2125	24.9023	48.9741	24.9023	49.9041	24.9023	50.4806	24.9023	51.1366	24.9023	51.5554	24.9023	51.9919	24.9023	52.2662	24.9023	52.5164	24.9023	52.6524	24.9023	52.7339
26.3672	51.029	26.3672	50.9223	26.3672	50.9055	26.3672	50.5804	26.3672	50.543	26.3672	49.9846	26.3672	49.9184	26.3672	49.1001	26.3672	48.9934	26.3672	47.8758	26.3672	47.7162	26.3672	46.2584	26.3672	46.0491	26.3672	44.2878	26.3672	44.1152	26.3672	42.5115	26.3672	42.7103	26.3672	42.4717	26.3672	43.3053	26.3672	44.4922	26.3672	45.5228	26.3672	46.9866	26.3672	47.9089	26.3672	49.1657	26.3672	49.9318	26.3672	50.9193	26.3672	51.5394	26.3672	52.2873	26.3672	52.7739	26.3672	53.3189	26.3672	53.6801	26.3672	54.0505	26.3672	54.29	26.3672	54.5051	26.3672	54.6246	26.3672	54.6951
27.832	53.1069	27.832	52.9955	27.832	52.9938	27.832	52.6559	27.832	52.6484	27.832	52.0719	27.832	52.0503	27.832	51.2135	27.832	51.1657	27.832	50.037	27.832	49.9495	27.832	48.4959	27.832	48.3657	27.832	46.6122	27.832	46.4956	27.832	44.7826	27.832	44.9283	27.832	44.2877	27.832	45.0087	27.832	45.8579	27.832	46.8708	27.832	48.2016	27.832	49.1582	27.832	50.3579	27.832	51.1704	27.832	52.1202	27.832	52.7855	27.832	53.5016	27.832	54.0278	27.832	54.5455	27.832	54.9381	27.832	55.2873	27.832	55.5486	27.832	55.7502	27.832	55.8808	27.832	55.9467
29.2969	54.0911	29.2969	53.9758	29.2969	54.0038	29.2969	53.6554	29.2969	53.7092	29.2969	53.1206	29.2969	53.1968	29.2969	52.3577	29.2969	52.4531	29.2969	51.357	29.2969	51.4736	29.2969	50.1414	29.2969	50.2981	29.2969	48.8489	29.2969	49.1037	29.2969	47.8901	29.2969	48.3454	29.2969	47.9049	29.2969	48.5949	29.2969	49.0397	29.2969	49.8332	29.2969	50.7134	29.2969	51.4735	29.2969	52.3936	29.2969	53.0633	29.2969	53.8613	29.2969	54.4251	29.2969	55.0612	29.2969	55.5156	29.2969	55.9916	29.2969	56.3348	29.2969	56.6629	29.2969	56.8931	29.2969	57.0849	29.2969	57.2005	29.2969	57.2636
30.7617	54.5952	30.7617	54.4709	30.7617	54.4892	30.7617	54.1118	30.7617	54.1446	30.7617	53.5002	30.7617	53.5395	30.7617	52.6033	30.7617	52.6361	30.7617	51.3726	30.7617	51.3795	30.7617	49.7546	30.7617	49.7094	30.7617	47.7709	30.7617	47.6529	30.7617	45.8793	30.7617	45.7612	30.7617	45.5369	30.7617	45.6747	30.7617	47.3415	30.7617	47.7292	30.7617	49.7783	30.7617	50.2254	30.7617	51.9445	30.7617	52.3668	30.7617	53.6895	30.7617	54.0597	30.7617	55.046	30.7617	55.3526	30.7617	56.0634	30.7617	56.2995	30.7617	56.779	30.7617	56.9394	30.7617	57.2164	30.7617	57.2976	30.7617	57.3882
32.2266	55.5735	32.2266	55.4629	32.2266	55.47	32.2266	55.1359	32.2266	55.1455	32.2266	54.581	32.2266	54.5841	32.2266	53.7794	32.2266	53.7621	32.2266	52.7118	32.2266	52.6565	32.2266	51.3863	32.2266	51.2783	32.2266	49.9305	32.2266	49.7879	32.2266	48.8068	32.2266	48.7491	32.2266	48.8187	32.2266	49.0205	32.2266	50.1327	32.2266	50.5601	32.2266	51.9893	32.2266	52.4916	32.2266	53.7861	32.2266	54.2729	32.2266	55.3183	32.2266	55.7507	32.2266	56.5517	32.2266	56.912	32.2266	57.4978	32.2266	57.7759	32.2266	58.1741	32.2266	58.3632	32.2266	58.5941	32.2266	58.6898	32.2266	58.7655
33.6914	56.0689	33.6914	55.9289	33.6914	55.9892	33.6914	55.5663	33.6914	55.686	33.6914	54.9725	33.6914	55.1505	33.6914	54.1393	33.6914	54.3751	33.6914	53.0781	33.6914	53.3736	33.6914	51.877	33.6914	52.2381	33.6914	50.8304	33.6914	51.263	33.6914	50.5183	33.6914	51.0057	33.6914	51.3334	33.6914	51.8264	33.6914	52.908	33.6914	53.3689	33.6914	54.6496	33.6914	55.0674	33.6914	56.2459	33.6914	56.618	33.6914	57.5994	33.6914	57.9223	33.6914	58.6947	33.6914	58.9634	33.6914	59.54	33.6914	59.7483	33.6914	60.1461	33.6914	60.2886	33.6914	60.5214	33.6914	60.5938	33.6914	60.6704
35.1562	57.0221	35.1562	56.8922	35.1562	56.9311	35.1562	56.5405	35.1562	56.6143	35.1562	55.9617	35.1562	56.0621	35.1562	55.1529	35.1562	55.267	35.1562	54.1337	35.1562	54.2448	35.1562	53.0029	35.1562	53.0951	35.1562	52.0517	35.1562	52.1304	35.1562	51.8058	35.1562	51.9243	35.1562	52.5931	35.1562	52.8071	35.1562	54.0841	35.1562	54.3815	35.1562	55.7485	35.1562	56.0844	35.1562	57.2906	35.1562	57.6275	35.1562	58.6087	35.1562	58.9209	35.1562	59.6817	35.1562	59.9511	35.1562	60.5132	35.1562	60.7267	35.1562	61.1117	35.1562	61.2594	35.1562	61.4837	35.1562	61.5592	35.1562	61.6329
36.6211	58.9191	36.6211	58.825	36.6211	58.8272	36.6211	58.5474	36.6211	58.5479	36.6211	58.0921	36.6211	58.0832	36.6211	57.4761	36.6211	57.4465	36.6211	56.7468	36.6211	56.6842	36.6211	56.0161	36.6211	55.9161	36.6211	55.497	36.6211	55.3817	36.6211	55.4626	36.6211	55.3901	36.6211	56.0489	36.6211	56.0742	36.6211	57.1109	36.6211	57.2386	36.6211	58.3713	36.6211	58.5684	36.6211	59.6158	36.6211	59.8438	36.6211	60.7311	36.6211	60.9594	36.6211	61.6688	36.6211	61.8748	36.6211	62.4107	36.6211	62.5783	36.6211	62.951	36.6211	63.0689	36.6211	63.2882	36.6211	63.349	36.6211	63.4214
38.0859	60.301	38.0859	60.228	38.0859	60.2002	38.0859	59.9836	38.0859	59.9247	38.0859	59.5731	38.0859	59.4769	38.0859	59.012	38.0859	58.8702	38.0859	58.3402	38.0859	58.1471	38.0859	57.6496	38.0859	57.4123	38.0859	57.1143	38.0859	56.8711	38.0859	56.9715	38.0859	56.7963	38.0859	57.3801	38.0859	57.3375	38.0859	58.2702	38.0859	58.3628	38.0859	59.4101	38.0859	59.594	38.0859	60.5839	38.0859	60.8095	38.0859	61.6613	38.0859	61.891	38.0859	62.5795	38.0859	62.7873	38.0859	63.3115	38.0859	63.4804	38.0859	63.8471	38.0859	63.9655	38.0859	64.1821	38.0859	64.243	38.0859	64.3146
39.5508	61.3043	39.5508	61.2415	39.5508	61.2125	39.5508	61.0275	39.5508	60.9673	39.5508	60.6722	39.5508	60.5773	39.5508	60.1986	39.5508	60.066	39.5508	59.6559	39.5508	59.4882	39.5508	59.1389	39.5508	58.9532	39.5508	58.7992	39.5508	58.636	39.5508	58.8094	39.5508	58.7245	39.5508	59.2597	39.5508	59.289	39.5508	60.0808	39.5508	60.216	39.5508	61.1007	39.5508	61.3047	39.5508	62.1545	39.5508	62.3875	39.5508	63.1331	39.5508	63.3636	39.5508	63.9768	39.5508	64.1827	39.5508	64.6559	39.5508	64.8219	39.5508	65.1562	39.5508	65.2721	39.5508	65.4708	39.5508	65.5303	39.5508	65.5962
41.0156	62.856	41.0156	62.7961	41.0156	62.7643	41.0156	62.5876	41.0156	62.5199	41.0156	62.237	41.0156	62.1253	41.0156	61.7583	41.0156	61.5916	41.0156	61.1823	41.0156	60.9507	41.0156	60.5728	41.0156	60.2757	41.0156	60.0444	41.0156	59.7069	41.0156	59.761	41.0156	59.4466	41.0156	59.8723	41.0156	59.6624	41.0156	60.4072	41.0156	60.3464	41.0156	61.2455	41.0156	61.3184	41.0156	62.2105	41.0156	62.3694	41.0156	63.1581	41.0156	63.3544	41.0156	64.0002	41.0156	64.1956	41.0156	64.6898	41.0156	64.8571	41.0156	65.2031	41.0156	65.3241	41.0156	65.5283	41.0156	65.5915	41.0156	65.659
42.4805	63.2106	42.4805	63.1537	42.4805	63.1283	42.4805	62.9604	42.4805	62.9086	42.4805	62.6397	42.4805	62.5604	42.4805	62.2124	42.4805	62.1065	42.4805	61.7216	42.4805	61.5963	42.4805	61.2477	42.4805	61.1227	42.4805	60.9173	42.4805	60.8302	42.4805	60.8783	42.4805	60.8752	42.4805	61.2234	42.4805	61.3317	42.4805	61.9187	42.4805	62.1276	42.4805	62.8285	42.4805	63.1009	42.4805	63.802	42.4805	64.0973	42.4805	64.7281	42.4805	65.0132	42.4805	65.5397	42.4805	65.7911	42.4805	66.2009	42.4805	66.402	42.4805	66.6928	42.4805	66.8327	42.4805	67.006	42.4805	67.0776	42.4805	67.1351
43.9453	64.3267	43.9453	64.2684	43.9453	64.2461	43.9453	64.074	43.9453	64.0293	43.9453	63.753	43.9453	63.6866	43.9453	63.3272	43.9453	63.2421	43.9453	62.8413	43.9453	62.7468	43.9453	62.377	43.9453	62.2935	43.9453	62.0604	43.9453	62.0219	43.9453	62.035	43.9453	62.0797	43.9453	62.3866	43.9453	62.5329	43.9453	63.0778	43.9453	63.3111	43.9453	63.9754	43.9453	64.2605	43.9453	64.9334	43.9453	65.2334	43.9453	65.8441	43.9453	66.1296	43.9453	66.6426	43.9453	66.8923	43.9453	67.2933	43.9453	67.4923	43.9453	67.7777	43.9453	67.9158	43.9453	68.0861	43.9453	68.1567	43.9453	68.2133
45.4102	65.348	45.4102	65.2943	45.4102	65.2776	45.4102	65.1202	45.4102	65.0864	45.4102	64.8379	45.4102	64.7864	45.4102	64.473	45.4102	64.4048	45.4102	64.0729	45.4102	63.9934	45.4102	63.716	45.4102	63.6394	45.4102	63.5111	45.4102	63.4623	45.4102	63.5688	45.4102	63.5772	45.4102	63.944	45.4102	64.0282	45.4102	64.5981	45.4102	64.754	45.4102	65.4231	45.4102	65.6291	45.4102	66.3007	45.4102	66.5293	45.4102	67.1392	45.4102	67.3652	45.4102	67.879	45.4102	68.0822	45.4102	68.4852	45.4102	68.6504	45.4102	68.938	45.4102	69.054	45.4102	69.226	45.4102	69.2858	45.4102	69.3429
46.875	66.4192	46.875	66.3707	46.875	66.3525	46.875	66.2109	46.875	66.1749	46.875	65.9529	46.875	65.9002	46.875	65.6235	46.875	65.5575	46.875	65.27	46.875	65.1993	46.875	64.9672	46.875	64.9083	46.875	64.8135	46.875	64.7907	46.875	64.9032	46.875	64.9417	46.875	65.2794	46.875	65.3917	46.875	65.9056	46.875	66.0839	46.875	66.6869	46.875	66.9091	46.875	67.5184	46.875	67.758	46.875	68.3158	46.875	68.5491	46.875	69.0227	46.875	69.2307	46.875	69.6044	46.875	69.7725	46.875	70.0404	46.875	70.1581	46.875	70.3188	46.875	70.3794	46.875	70.4329
48.3398	67.4763	48.3398	67.4341	48.3398	67.4207	48.3398	67.2987	48.3398	67.2718	48.3398	67.0846	48.3398	67.0448	48.3398	66.8199	48.3398	66.7693	48.3398	66.5504	48.3398	66.4951	48.3398	66.3422	48.3398	66.2946	48.3398	66.2747	48.3398	66.2533	48.3398	66.4167	48.3398	66.4411	48.3398	66.7947	48.3398	66.8762	48.3398	67.3762	48.3398	67.5121	48.3398	68.0866	48.3398	68.2622	48.3398	68.8414	48.3398	69.0365	48.3398	69.5694	48.3398	69.7638	48.3398	70.2192	48.3398	70.3956	48.3398	70.7572	48.3398	70.9016	48.3398	71.1622	48.3398	71.2642	48.3398	71.4209	48.3398	71.4736	48.3398	71.5259
51.2695	69.9328	51.2695	69.899	51.2695	69.894	51.2695	69.7965	51.2695	69.7869	51.2695	69.6375	51.2695	69.6249	51.2695	69.445	51.2695	69.4325	51.2695	69.2546	51.2695	69.2478	51.2695	69.1147	51.2695	69.1229	51.2695	69.0812	51.2695	69.1161	51.2695	69.2028	51.2695	69.2757	51.2695	69.5024	51.2695	69.6189	51.2695	69.9646	51.2695	70.1217	51.2695	70.5418	51.2695	70.7279	51.2695	71.1717	51.2695	71.3708	51.2695	71.7948	51.2695	71.9899	51.2695	72.3628	51.2695	72.5385	51.2695	72.8411	51.2695	72.9844	51.2695	73.2057	51.2695	73.3068	51.2695	73.4412	51.2695	73.4934	51.2695	73.5384
52.7344	71.1744	52.7344	71.1443	52.7344	71.1381	52.7344	71.0514	52.7344	71.0391	52.7344	70.9073	52.7344	70.8894	52.7344	70.7325	52.7344	70.7109	52.7344	70.5589	52.7344	70.5376	52.7344	70.4291	52.7344	70.4154	52.7344	70.3921	52.7344	70.3965	52.7344	70.4915	52.7344	70.5254	52.7344	70.7501	52.7344	70.8215	52.7344	71.1588	52.7344	71.2682	52.7344	71.6785	52.7344	71.8188	52.7344	72.2547	52.7344	72.4128	52.7344	72.832	52.7344	72.9926	52.7344	73.3637	52.7344	73.512	52.7344	73.8145	52.7344	73.9376	52.7344	74.1596	52.7344	74.2474	52.7344	74.3825	52.7344	74.4281	52.7344	74.4734
54.1992	72.3459	54.1992	72.3211	54.1992	72.3081	54.1992	72.2366	54.1992	72.2111	54.1992	72.1025	54.1992	72.0659	54.1992	71.9367	54.1992	71.8921	54.1992	71.7671	54.1992	71.7203	54.1992	71.6314	54.1992	71.5916	54.1992	71.5741	54.1992	71.5534	54.1992	71.6368	54.1992	71.6484	54.1992	71.8449	54.1992	71.8979	54.1992	72.1959	54.1992	72.292	54.1992	72.6592	54.1992	72.7911	54.1992	73.1862	54.1992	73.3403	54.1992	73.7244	54.1992	73.8841	54.1992	74.2269	54.1992	74.3762	54.1992	74.6574	54.1992	74.7822	54.1992	74.9894	54.1992	75.0788	54.1992	75.2053	54.1992	75.2519	54.1992	75.2944
55.6641	73.3449	55.6641	73.3194	55.6641	73.3088	55.6641	73.2351	55.6641	73.215	55.6641	73.1018	55.6641	73.0745	55.6641	72.9373	55.6641	72.9067	55.6641	72.7691	55.6641	72.7417	55.6641	72.6342	55.6641	72.6194	55.6641	72.5764	55.6641	72.5852	55.6641	72.6363	55.6641	72.6795	55.6641	72.839	55.6641	72.9227	55.6641	73.1822	55.6641	73.3053	55.6641	73.6364	55.6641	73.7898	55.6641	74.1539	55.6641	74.3237	55.6641	74.6832	55.6641	74.8535	55.6641	75.1781	55.6641	75.3339	55.6641	75.6025	55.6641	75.731	55.6641	75.9302	55.6641	76.0214	55.6641	76.1435	55.6641	76.1908	55.6641	76.2319
58.5938	75.1744	58.5938	75.1607	58.5938	75.1502	58.5938	75.1117	58.5938	75.092	58.5938	75.0364	58.5938	75.01	58.5938	74.9507	58.5938	74.9221	58.5938	74.8776	58.5938	74.853	58.5938	74.8458	58.5938	74.8335	58.5938	74.8862	58.5938	74.895	58.5938	75.0242	58.5938	75.0617	58.5938	75.2724	58.5938	75.3422	58.5938	75.6242	58.5938	75.725	58.5938	76.0556	58.5938	76.1802	58.5938	76.5303	58.5938	76.6681	58.5938	77.0087	58.5938	77.1473	58.5938	77.4542	58.5938	77.5815	58.5938	77.8362	58.5938	77.9415	58.5938	78.1312	58.5938	78.2063	58.5938	78.3231	58.5938	78.362	58.5938	78.4014
60.0586	76.3085	60.0586	76.2835	60.0586	76.2998	60.0586	76.2277	60.0586	76.2599	60.0586	76.1501	60.0586	76.1974	60.0586	76.0655	60.0586	76.127	60.0586	75.9949	60.0586	76.07	60.0586	75.9636	60.0586	76.0523	60.0586	75.9985	60.0586	76.1013	60.0586	76.1214	60.0586	76.2393	60.0586	76.3432	60.0586	76.4767	60.0586	76.6588	60.0586	76.8064	60.0586	77.0478	60.0586	77.2055	60.0586	77.479	60.0586	77.6398	60.0586	77.9171	60.0586	78.072	60.0586	78.3282	60.0586	78.4674	60.0586	78.6834	60.0586	78.7974	60.0586	78.9599	60.0586	79.0407	60.0586	79.1412	60.0586	79.1831	60.0586	79.2171
62.9883	78.3059	62.9883	78.2901	62.9883	78.2967	62.9883	78.2521	62.9883	78.2645	62.9883	78.1996	62.9883	78.2167	62.9883	78.1451	62.9883	78.1663	62.9883	78.1057	62.9883	78.1312	62.9883	78.1011	62.9883	78.133	62.9883	78.1517	62.9883	78.194	62.9883	78.2739	62.9883	78.3317	62.9883	78.476	62.9883	78.5538	62.9883	78.7548	62.9883	78.8545	62.9883	79.0952	62.9883	79.2144	62.9883	79.473	62.9883	79.6051	62.9883	79.8592	62.9883	79.9943	62.9883	80.2247	62.9883	80.3513	62.9883	80.5433	62.9883	80.6499	62.9883	80.7932	62.9883	80.8702	62.9883	80.9585	62.9883	80.9989	62.9883	81.0286
64.4531	79.2334	64.4531	79.2224	64.4531	79.2248	64.4531	79.1942	64.4531	79.1987	64.4531	79.1553	64.4531	79.162	64.4531	79.1168	64.4531	79.126	64.4531	79.0929	64.4531	79.1067	64.4531	79.1006	64.4531	79.1227	64.4531	79.1572	64.4531	79.193	64.4531	79.2767	64.4531	79.3321	64.4531	79.4667	64.4531	79.5461	64.4531	79.7249	64.4531	79.8295	64.4531	80.039	64.4531	80.1656	64.4531	80.3882	64.4531	80.5289	64.4531	80.7467	64.4531	80.8907	64.4531	81.088	64.4531	81.2227	64.4531	81.3871	64.4531	81.5005	64.4531	81.6234	64.4531	81.7052	64.4531	81.7809	64.4531	81.8238	64.4531	81.8493
67.3828	81.0345	67.3828	81.0199	67.3828	81.0363	67.3828	80.9943	67.3828	81.0275	67.3828	80.9627	67.3828	81.0136	67.3828	80.9336	67.3828	81.0034	67.3828	80.9186	67.3828	81.0089	67.3828	80.931	67.3828	81.0438	67.3828	80.9848	67.3828	81.1215	67.3828	81.0915	67.3828	81.2524	67.3828	81.2577	67.3828	81.4411	67.3828	81.4826	67.3828	81.6839	67.3828	81.7568	67.3828	81.9686	67.3828	82.0637	67.3828	82.276	67.3828	82.3817	67.3828	82.5831	67.3828	82.6874	67.3828	82.8661	67.3828	82.9583	67.3828	83.1032	67.3828	83.175	67.3828	83.2771	67.3828	83.3225	67.3828	83.3753	67.3828	83.3908
