"SPL Vertical"																																																																							
"On-Axis"		"10°"		"-10°"		"20°"		"-20°"		"30°"		"-30°"		"40°"		"-40°"		"50°"		"-50°"		"60°"		"-60°"		"70°"		"-70°"		"80°"		"-80°"		"90°"		"-90°"		"100°"		"-100°"		"110°"		"-110°"		"120°"		"-120°"		"130°"		"-130°"		"140°"		"-140°"		"150°"		"-150°"		"160°"		"-160°"		"170°"		"-170°"		"180°"	
"Frequency [Hz]"	"Sound Pessure Level [dB]  / [2.83V 1m] "	"Frequency [Hz]"	"Sound Pessure Level [dB]  / [2.83V 1m] "	"Frequency [Hz]"	"Sound Pessure Level [dB]  / [2.83V 1m] "	"Frequency [Hz]"	"Sound Pessure Level [dB]  / [2.83V 1m] "	"Frequency [Hz]"	"Sound Pessure Level [dB]  / [2.83V 1m] "	"Frequency [Hz]"	"Sound Pessure Level [dB]  / [2.83V 1m] "	"Frequency [Hz]"	"Sound Pessure Level [dB]  / [2.83V 1m] "	"Frequency [Hz]"	"Sound Pessure Level [dB]  / [2.83V 1m] "	"Frequency [Hz]"	"Sound Pessure Level [dB]  / [2.83V 1m] "	"Frequency [Hz]"	"Sound Pessure Level [dB]  / [2.83V 1m] "	"Frequency [Hz]"	"Sound Pessure Level [dB]  / [2.83V 1m] "	"Frequency [Hz]"	"Sound Pessure Level [dB]  / [2.83V 1m] "	"Frequency [Hz]"	"Sound Pessure Level [dB]  / [2.83V 1m] "	"Frequency [Hz]"	"Sound Pessure Level [dB]  / [2.83V 1m] "	"Frequency [Hz]"	"Sound Pessure Level [dB]  / [2.83V 1m] "	"Frequency [Hz]"	"Sound Pessure Level [dB]  / [2.83V 1m] "	"Frequency [Hz]"	"Sound Pessure Level [dB]  / [2.83V 1m] "	"Frequency [Hz]"	"Sound Pessure Level [dB]  / [2.83V 1m] "	"Frequency [Hz]"	"Sound Pessure Level [dB]  / [2.83V 1m] "	"Frequency [Hz]"	"Sound Pessure Level [dB]  / [2.83V 1m] "	"Frequency [Hz]"	"Sound Pessure Level [dB]  / [2.83V 1m] "	"Frequency [Hz]"	"Sound Pessure Level [dB]  / [2.83V 1m] "	"Frequency [Hz]"	"Sound Pessure Level [dB]  / [2.83V 1m] "	"Frequency [Hz]"	"Sound Pessure Level [dB]  / [2.83V 1m] "	"Frequency [Hz]"	"Sound Pessure Level [dB]  / [2.83V 1m] "	"Frequency [Hz]"	"Sound Pessure Level [dB]  / [2.83V 1m] "	"Frequency [Hz]"	"Sound Pessure Level [dB]  / [2.83V 1m] "	"Frequency [Hz]"	"Sound Pessure Level [dB]  / [2.83V 1m] "	"Frequency [Hz]"	"Sound Pessure Level [dB]  / [2.83V 1m] "	"Frequency [Hz]"	"Sound Pessure Level [dB]  / [2.83V 1m] "	"Frequency [Hz]"	"Sound Pessure Level [dB]  / [2.83V 1m] "	"Frequency [Hz]"	"Sound Pessure Level [dB]  / [2.83V 1m] "	"Frequency [Hz]"	"Sound Pessure Level [dB]  / [2.83V 1m] "	"Frequency [Hz]"	"Sound Pessure Level [dB]  / [2.83V 1m] "	"Frequency [Hz]"	"Sound Pessure Level [dB]  / [2.83V 1m] "	"Frequency [Hz]"	"Sound Pessure Level [dB]  / [2.83V 1m] "
20.5078	57.2462	20.5078	56.9102	20.5078	57.5127	20.5078	56.5511	20.5078	57.6791	20.5078	56.2353	20.5078	57.7254	20.5078	56.0494	20.5078	57.6429	20.5078	56.0842	20.5078	57.4393	20.5078	56.4009	20.5078	57.1541	20.5078	56.9985	20.5078	56.8834	20.5078	57.8155	20.5078	56.7966	20.5078	58.7625	20.5078	57.0897	20.5078	59.7554	20.5078	57.8464	20.5078	60.7298	20.5078	58.9511	20.5078	61.6407	20.5078	60.1872	20.5078	62.4564	20.5078	61.3732	20.5078	63.1529	20.5078	62.4031	20.5078	63.7104	20.5078	63.228	20.5078	64.1111	20.5078	63.8309	20.5078	64.3382	20.5078	64.2111	20.5078	64.3763
23.4375	59.5053	23.4375	59.2461	23.4375	59.7228	23.4375	59.0067	23.4375	59.8574	23.4375	58.8679	23.4375	59.8852	23.4375	58.9182	23.4375	59.8012	23.4375	59.2247	23.4375	59.6276	23.4375	59.8011	23.4375	59.4333	23.4375	60.6023	23.4375	59.3549	23.4375	61.5491	23.4375	59.5814	23.4375	62.561	23.4375	60.2509	23.4375	63.5739	23.4375	61.3263	23.4375	64.5421	23.4375	62.6212	23.4375	65.434	23.4375	63.9365	23.4375	66.2263	23.4375	65.1383	23.4375	66.8999	23.4375	66.1572	23.4375	67.4379	23.4375	66.9636	23.4375	67.8241	23.4375	67.5497	23.4375	68.0427	23.4375	67.9185	23.4375	68.0788
26.3672	63.2763	26.3672	63.1028	26.3672	63.4332	26.3672	62.9587	26.3672	63.5413	26.3672	62.9011	26.3672	63.5837	26.3672	62.9894	26.3672	63.5613	26.3672	63.2682	26.3672	63.4988	26.3672	63.7511	26.3672	63.4554	26.3672	64.4148	26.3672	63.5291	26.3672	65.2103	26.3672	63.8362	26.3672	66.0797	26.3672	64.4517	26.3672	66.9703	26.3672	65.3513	26.3672	67.8394	26.3672	66.422	26.3672	68.6538	26.3672	67.5276	26.3672	69.3872	26.3672	68.5603	26.3672	70.018	26.3672	69.4525	26.3672	70.527	26.3672	70.168	26.3672	70.8969	26.3672	70.6914	26.3672	71.1114	26.3672	71.0193	26.3672	71.1563
29.2969	66.8979	29.2969	66.7719	29.2969	67.0224	29.2969	66.6794	29.2969	67.1206	29.2969	66.6627	29.2969	67.1799	29.2969	66.764	29.2969	67.2027	29.2969	67.0158	29.2969	67.2106	29.2969	67.4301	29.2969	67.2498	29.2969	67.9945	29.2969	67.3904	29.2969	68.6765	29.2969	67.71	29.2969	69.4337	29.2969	68.2585	29.2969	70.2232	29.2969	69.0232	29.2969	71.0064	29.2969	69.9305	29.2969	71.751	29.2969	70.8808	29.2969	72.4299	29.2969	71.7847	29.2969	73.0197	29.2969	72.578	29.2969	73.5001	29.2969	73.2216	29.2969	73.8526	29.2969	73.6951	29.2969	74.0608	29.2969	73.9911	29.2969	74.1106
32.2266	70.7005	32.2266	70.6255	32.2266	70.787	32.2266	70.5861	32.2266	70.8677	32.2266	70.6104	32.2266	70.9343	32.2266	70.726	32.2266	70.9898	32.2266	70.9541	32.2266	71.0517	32.2266	71.3043	32.2266	71.1532	32.2266	71.7714	32.2266	71.3412	32.2266	72.3366	32.2266	71.6648	32.2266	72.9721	32.2266	72.1543	32.2266	73.6462	32.2266	72.8021	32.2266	74.3271	32.2266	73.5611	32.2266	74.9856	32.2266	74.3615	32.2266	75.5952	32.2266	75.133	32.2266	76.1319	32.2266	75.8196	32.2266	76.5743	32.2266	76.3824	32.2266	76.9032	32.2266	76.7984	32.2266	77.1018	32.2266	77.0569	32.2266	77.1564
35.1563	74.4735	35.1563	74.4104	35.1563	74.5527	35.1563	74.3797	35.1563	74.6364	35.1563	74.4005	35.1563	74.7193	35.1563	74.492	35.1563	74.8038	35.1563	74.6699	35.1563	74.902	35.1563	74.9433	35.1563	75.0357	35.1563	75.3121	35.1563	75.2345	35.1563	75.7668	35.1563	75.5293	35.1563	76.2895	35.1563	75.9399	35.1563	76.8569	35.1563	76.4644	35.1563	77.4432	35.1563	77.0747	35.1563	78.0221	35.1563	77.7239	35.1563	78.5681	35.1563	78.3588	35.1563	79.0571	35.1563	78.9315	35.1563	79.4671	35.1563	79.4051	35.1563	79.7783	35.1563	79.7551	35.1563	79.9736	35.1563	79.9681	35.1563	80.0399
38.0859	77.7688	38.0859	77.7183	38.0859	77.8386	38.0859	77.6985	38.0859	77.9197	38.0859	77.7224	38.0859	78.0086	38.0859	77.8034	38.0859	78.1071	38.0859	77.9528	38.0859	78.2234	38.0859	78.1782	38.0859	78.3723	38.0859	78.4813	38.0859	78.5734	38.0859	78.8572	38.0859	78.8466	38.0859	79.2944	38.0859	79.2054	38.0859	79.7765	38.0859	79.649	38.0859	80.2829	38.0859	80.159	38.0859	80.7913	38.0859	80.7016	38.0859	81.2785	38.0859	81.2359	38.0859	81.7214	38.0859	81.7215	38.0859	82.0983	38.0859	82.125	38.0859	82.3894	38.0859	82.4224	38.0859	82.5778	38.0859	82.5994	38.0859	82.6505
41.0156	80.4968	41.0156	80.4551	41.0156	80.561	41.0156	80.4435	41.0156	80.6423	41.0156	80.4706	41.0156	80.738	41.0156	80.5452	41.0156	80.8489	41.0156	80.6749	41.0156	80.98	41.0156	80.8651	41.0156	81.1401	41.0156	81.1176	41.0156	81.3412	41.0156	81.4298	41.0156	81.5955	41.0156	81.7947	41.0156	81.911	41.0156	82.2009	41.0156	82.2874	41.0156	82.633	41.0156	82.7121	41.0156	83.073	41.0156	83.1614	41.0156	83.5008	41.0156	83.6044	41.0156	83.8956	41.0156	84.0084	41.0156	84.2369	41.0156	84.3445	41.0156	84.5056	41.0156	84.5904	41.0156	84.6852	41.0156	84.732	41.0156	84.7632
43.9453	82.3453	43.9453	82.3052	43.9453	82.4087	43.9453	82.2932	43.9453	82.4917	43.9453	82.3152	43.9453	82.5924	43.9453	82.3771	43.9453	82.7113	43.9453	82.4846	43.9453	82.8512	43.9453	82.6418	43.9453	83.0174	43.9453	82.851	43.9453	83.2167	43.9453	83.1114	43.9453	83.4561	43.9453	83.4189	43.9453	83.7401	43.9453	83.7656	43.9453	84.0674	43.9453	84.14	43.9453	84.4285	43.9453	84.5271	43.9453	84.8059	43.9453	84.9096	43.9453	85.1756	43.9453	85.2684	43.9453	85.5112	43.9453	85.5842	43.9453	85.7882	43.9453	85.8386	43.9453	85.9868	43.9453	86.0156	43.9453	86.0937	43.9453	86.103
46.875	83.3778	46.875	83.3396	46.875	83.4409	46.875	83.3293	46.875	83.5264	46.875	83.3507	46.875	83.6327	46.875	83.4074	46.875	83.7595	46.875	83.5028	46.875	83.9076	46.875	83.6398	46.875	84.0791	46.875	83.8198	46.875	84.2773	46.875	84.0426	46.875	84.505	46.875	84.3056	46.875	84.7639	46.875	84.6033	46.875	85.0519	46.875	84.9273	46.875	85.3615	46.875	85.2658	46.875	85.6795	46.875	85.6043	46.875	85.9874	46.875	85.9264	46.875	86.2643	46.875	86.2145	46.875	86.4899	46.875	86.4516	46.875	86.6471	46.875	86.6225	46.875	86.7242	46.875	86.7157
49.8047	83.8681	49.8047	83.8299	49.8047	83.9321	49.8047	83.8192	49.8047	84.0202	49.8047	83.8381	49.8047	84.1311	49.8047	83.8885	49.8047	84.2637	49.8047	83.9724	49.8047	84.4175	49.8047	84.0913	49.8047	84.5924	49.8047	84.2463	49.8047	84.7886	49.8047	84.4373	49.8047	85.0063	49.8047	84.6627	49.8047	85.2447	49.8047	84.9189	49.8047	85.5008	49.8047	85.1999	49.8047	85.7684	49.8047	85.4965	49.8047	86.037	49.8047	85.797	49.8047	86.2925	49.8047	86.0871	49.8047	86.5183	49.8047	86.3513	49.8047	86.698	49.8047	86.5738	49.8047	86.8173	49.8047	86.7404	49.8047	86.8661	49.8047	86.8401
52.7344	84.1497	52.7344	84.1128	52.7344	84.2129	52.7344	84.103	52.7344	84.3014	52.7344	84.1209	52.7344	84.4141	52.7344	84.1673	52.7344	84.5493	52.7344	84.2425	52.7344	84.7054	52.7344	84.3473	52.7344	84.8803	52.7344	84.4819	52.7344	85.0724	52.7344	84.6462	52.7344	85.2795	52.7344	84.8393	52.7344	85.499	52.7344	85.0589	52.7344	85.7274	52.7344	85.3008	52.7344	85.959	52.7344	85.5582	52.7344	86.1855	52.7344	85.8219	52.7344	86.396	52.7344	86.0802	52.7344	86.5777	52.7344	86.3194	52.7344	86.7175	52.7344	86.5255	52.7344	86.8039	52.7344	86.6855	52.7344	86.8288	52.7344	86.7888
55.6641	84.3397	55.6641	84.3025	55.6641	84.4034	55.6641	84.2916	55.6641	84.4928	55.6641	84.3068	55.6641	84.607	55.6641	84.3476	55.6641	84.7439	55.6641	84.4138	55.6641	84.9009	55.6641	84.5049	55.6641	85.075	55.6641	84.6208	55.6641	85.2625	55.6641	84.7614	55.6641	85.4599	55.6641	84.9263	55.6641	85.6633	55.6641	85.114	55.6641	85.8685	55.6641	85.3219	55.6641	86.0701	55.6641	85.5455	55.6641	86.2612	55.6641	85.7776	55.6641	86.4334	55.6641	86.0086	55.6641	86.5767	55.6641	86.2271	55.6641	86.6809	55.6641	86.4203	55.6641	86.737	55.6641	86.5761	55.6641	86.739	55.6641	86.6846
58.5938	84.529	58.5938	84.4905	58.5938	84.5941	58.5938	84.4782	58.5938	84.6856	58.5938	84.4909	58.5938	84.8024	58.5938	84.5273	58.5938	84.942	58.5938	84.5861	58.5938	85.101	58.5938	84.6663	58.5938	85.2751	58.5938	84.7671	58.5938	85.4595	58.5938	84.8881	58.5938	85.6491	58.5938	85.0289	58.5938	85.8388	58.5938	85.189	58.5938	86.0237	58.5938	85.367	58.5938	86.1986	58.5938	85.5598	58.5938	86.3578	58.5938	85.7625	58.5938	86.4947	58.5938	85.9677	58.5938	86.602	58.5938	86.166	58.5938	86.6724	58.5938	86.3464	58.5938	86.6995	58.5938	86.4979	58.5938	86.6794	58.5938	86.6111
61.5234	84.6695	61.5234	84.6282	61.5234	84.7371	61.5234	84.6124	61.5234	84.831	61.5234	84.6204	61.5234	84.95	61.5234	84.6502	61.5234	85.0911	61.5234	84.6999	61.5234	85.2504	61.5234	84.7678	61.5234	85.4226	61.5234	84.8528	61.5234	85.6021	61.5234	84.9543	61.5234	85.7826	61.5234	85.0721	61.5234	85.9583	61.5234	85.2062	61.5234	86.1238	61.5234	85.3563	61.5234	86.274	61.5234	85.521	61.5234	86.4041	61.5234	85.6972	61.5234	86.509	61.5234	85.8796	61.5234	86.5836	61.5234	86.0604	61.5234	86.6228	61.5234	86.2304	61.5234	86.6227	61.5234	86.3795	61.5234	86.5811	61.5234	86.4988
64.4531	84.8662	64.4531	84.8211	64.4531	84.9369	64.4531	84.8003	64.4531	85.033	64.4531	84.8018	64.4531	85.1532	64.4531	84.8232	64.4531	85.2943	64.4531	84.8621	64.4531	85.4519	64.4531	84.9163	64.4531	85.6201	64.4531	84.9844	64.4531	85.7924	64.4531	85.0655	64.4531	85.962	64.4531	85.1597	64.4531	86.1224	64.4531	85.2674	64.4531	86.2677	64.4531	85.3895	64.4531	86.3931	64.4531	85.5259	64.4531	86.4943	64.4531	85.6753	64.4531	86.5675	64.4531	85.8344	64.4531	86.6096	64.4531	85.9976	64.4531	86.6176	64.4531	86.1571	64.4531	86.59	64.4531	86.3039	64.4531	86.5265	64.4531	86.4295
67.3828	85.1435	67.3828	85.0928	67.3828	85.2182	67.3828	85.0647	67.3828	85.3167	67.3828	85.057	67.3828	85.4378	67.3828	85.0669	67.3828	85.5781	67.3828	85.0918	67.3828	85.7328	67.3828	85.1293	67.3828	85.8958	67.3828	85.1778	67.3828	86.0599	67.3828	85.2367	67.3828	86.218	67.3828	85.3062	67.3828	86.363	67.3828	85.3876	67.3828	86.4888	67.3828	85.4826	67.3828	86.5904	67.3828	85.5926	67.3828	86.664	67.3828	85.718	67.3828	86.707	67.3828	85.8573	67.3828	86.7178	67.3828	86.0064	67.3828	86.6954	67.3828	86.1588	67.3828	86.6402	67.3828	86.3065	67.3828	86.554	67.3828	86.4408
70.3125	85.2951	70.3125	85.242	70.3125	85.3725	70.3125	85.2118	70.3125	85.4742	70.3125	85.2021	70.3125	85.5984	70.3125	85.2099	70.3125	85.7413	70.3125	85.232	70.3125	85.8976	70.3125	85.2658	70.3125	86.0606	70.3125	85.3093	70.3125	86.2225	70.3125	85.3615	70.3125	86.3757	70.3125	85.4226	70.3125	86.5127	70.3125	85.4938	70.3125	86.6274	70.3125	85.5771	70.3125	86.7151	70.3125	85.6744	70.3125	86.7727	70.3125	85.7866	70.3125	86.7984	70.3125	85.9132	70.3125	86.7919	70.3125	86.0512	70.3125	86.7537	70.3125	86.1953	70.3125	86.6855	70.3125	86.3384	70.3125	86.5903	70.3125	86.4725
73.2422	85.5852	73.2422	85.532	73.2422	85.6626	73.2422	85.5018	73.2422	85.7641	73.2422	85.492	73.2422	85.8877	73.2422	85.4994	73.2422	86.0296	73.2422	85.5205	73.2422	86.1842	73.2422	85.5523	73.2422	86.3446	73.2422	85.5922	73.2422	86.5029	73.2422	85.6389	73.2422	86.6512	73.2422	85.6921	73.2422	86.7818	73.2422	85.7528	73.2422	86.8882	73.2422	85.823	73.2422	86.9655	73.2422	85.905	73.2422	87.0106	73.2422	86.0009	73.2422	87.0222	73.2422	86.1114	73.2422	87.0006	73.2422	86.2351	73.2422	86.9477	73.2422	86.3684	73.2422	86.8666	73.2422	86.5055	73.2422	86.7618	73.2422	86.6391
76.1719	85.8465	76.1719	85.7897	76.1719	85.9268	76.1719	85.755	76.1719	86.0302	76.1719	85.7398	76.1719	86.1546	76.1719	85.7408	76.1719	86.2959	76.1719	85.7544	76.1719	86.4483	76.1719	85.777	76.1719	86.6046	76.1719	85.8058	76.1719	86.7567	76.1719	85.8392	76.1719	86.8961	76.1719	85.8768	76.1719	87.0151	76.1719	85.9196	76.1719	87.1069	76.1719	85.97	76.1719	87.1665	76.1719	86.0311	76.1719	87.1911	76.1719	86.1064	76.1719	87.1801	76.1719	86.1981	76.1719	87.1349	76.1719	86.3068	76.1719	87.0589	76.1719	86.4305	76.1719	86.9571	76.1719	86.5646	76.1719	86.8358	76.1719	86.7023
79.1016	85.9756	79.1016	85.9184	79.1016	86.0571	79.1016	85.8842	79.1016	86.1627	79.1016	85.8701	79.1016	86.2902	79.1016	85.8725	79.1016	86.4354	79.1016	85.8872	79.1016	86.5922	79.1016	85.9105	79.1016	86.7532	79.1016	85.939	79.1016	86.91	79.1016	85.9708	79.1016	87.0536	79.1016	86.0053	79.1016	87.1757	79.1016	86.0433	79.1016	87.2689	79.1016	86.0875	79.1016	87.3276	79.1016	86.1416	79.1016	87.3487	79.1016	86.2096	79.1016	87.3313	79.1016	86.2951	79.1016	87.2772	79.1016	86.3995	79.1016	87.1904	79.1016	86.522	79.1016	87.0769	79.1016	86.6584	79.1016	86.9446	79.1016	86.802
82.0313	86.323	82.0313	86.2652	82.0313	86.4019	82.0313	86.2271	82.0313	86.5016	82.0313	86.2062	82.0313	86.6199	82.0313	86.1987	82.0313	86.7527	82.0313	86.2007	82.0313	86.8944	82.0313	86.2082	82.0313	87.038	82.0313	86.218	82.0313	87.1753	82.0313	86.228	82.0313	87.2981	82.0313	86.2377	82.0313	87.3981	82.0313	86.2485	82.0313	87.4682	82.0313	86.2636	82.0313	87.5028	82.0313	86.2876	82.0313	87.4991	82.0313	86.3261	82.0313	87.4566	82.0313	86.3843	82.0313	87.3779	82.0313	86.4658	82.0313	87.2685	82.0313	86.5714	82.0313	87.1361	82.0313	86.6984	82.0313	86.9902	82.0313	86.8409
84.9609	86.7242	84.9609	86.6609	84.9609	86.8022	84.9609	86.6111	84.9609	86.8943	84.9609	86.5724	84.9609	86.9985	84.9609	86.5413	84.9609	87.1108	84.9609	86.5141	84.9609	87.2258	84.9609	86.4872	84.9609	87.3366	84.9609	86.4576	84.9609	87.4358	84.9609	86.4236	84.9609	87.5155	84.9609	86.3855	84.9609	87.5682	84.9609	86.3453	84.9609	87.5877	84.9609	86.3074	84.9609	87.5698	84.9609	86.2783	84.9609	87.5129	84.9609	86.2656	84.9609	87.4185	84.9609	86.2772	84.9609	87.2916	84.9609	86.3194	84.9609	87.1399	84.9609	86.3959	84.9609	86.9737	84.9609	86.5061	84.9609	86.8047	84.9609	86.6452
87.8906	86.6238	87.8906	86.5624	87.8906	86.7086	87.8906	86.5228	87.8906	86.8165	87.8906	86.5017	87.8906	86.9448	87.8906	86.4949	87.8906	87.089	87.8906	86.4974	87.8906	87.2425	87.8906	86.5046	87.8906	87.3972	87.8906	86.5129	87.8906	87.5442	87.8906	86.5199	87.8906	87.6742	87.8906	86.5249	87.8906	87.7781	87.8906	86.5296	87.8906	87.8484	87.8906	86.5377	87.8906	87.8793	87.8906	86.5546	87.8906	87.8678	87.8906	86.5869	87.8906	87.8138	87.8906	86.6409	87.8906	87.7206	87.8906	86.7213	87.8906	87.5946	87.8906	86.8298	87.8906	87.4448	87.8906	86.9641	87.8906	87.282	87.8906	87.118
90.8203	86.6965	90.8203	86.6315	90.8203	86.7858	90.8203	86.5898	90.8203	86.8986	90.8203	86.5688	90.8203	87.0317	90.8203	86.5644	90.8203	87.1805	90.8203	86.5716	90.8203	87.3383	90.8203	86.5856	90.8203	87.4975	90.8203	86.6019	90.8203	87.6493	90.8203	86.6174	90.8203	87.7845	90.8203	86.6306	90.8203	87.8939	90.8203	86.6424	90.8203	87.9696	90.8203	86.6556	90.8203	88.0052	90.8203	86.6754	90.8203	87.9968	90.8203	86.7083	90.8203	87.9441	90.8203	86.7611	90.8203	87.85	90.8203	86.8393	90.8203	87.7213	90.8203	86.9458	90.8203	87.5676	90.8203	87.0793	90.8203	87.401	90.8203	87.2342
93.75	87.0157	93.75	86.9368	93.75	87.1124	93.75	86.8758	93.75	87.2255	93.75	86.8309	93.75	87.3519	93.75	86.799	93.75	87.4871	93.75	86.7765	93.75	87.6253	93.75	86.7589	93.75	87.7599	93.75	86.7428	93.75	87.8832	93.75	86.7252	93.75	87.9872	93.75	86.7051	93.75	88.0637	93.75	86.6837	93.75	88.1052	93.75	86.6645	93.75	88.1058	93.75	86.6531	93.75	88.062	93.75	86.6571	93.75	87.9738	93.75	86.6849	93.75	87.845	93.75	86.7438	93.75	87.6836	93.75	86.8383	93.75	87.5011	93.75	86.9685	93.75	87.3115	93.75	87.1295
96.6797	87.335	96.6797	87.2638	96.6797	87.4211	96.6797	87.2065	96.6797	87.521	96.6797	87.1608	96.6797	87.6322	96.6797	87.1229	96.6797	87.7504	96.6797	87.0884	96.6797	87.8701	96.6797	87.053	96.6797	87.9844	96.6797	87.0128	96.6797	88.0857	96.6797	86.9653	96.6797	88.1659	96.6797	86.9103	96.6797	88.2169	96.6797	86.8497	96.6797	88.2312	96.6797	86.7885	96.6797	88.2033	96.6797	86.7343	96.6797	88.13	96.6797	86.697	96.6797	88.0121	96.6797	86.6876	96.6797	87.8546	96.6797	86.7158	96.6797	87.6667	96.6797	86.7883	96.6797	87.4619	96.6797	86.9067	96.6797	87.2562	96.6797	87.0662
102.539	87.5684	102.539	87.4871	102.539	87.6657	102.539	87.4221	102.539	87.7768	102.539	87.3717	102.539	87.898	102.539	87.3326	102.539	88.0242	102.539	87.3006	102.539	88.1495	102.539	87.2705	102.539	88.2669	102.539	87.2381	102.539	88.3691	102.539	87.1999	102.539	88.4486	102.539	87.1547	102.539	88.4977	102.539	87.1036	102.539	88.5096	102.539	87.0507	102.539	88.4789	102.539	87.0031	102.539	88.4029	102.539	86.97	102.539	88.2824	102.539	86.9623	102.539	88.1226	102.539	86.9901	102.539	87.933	102.539	87.0606	102.539	87.7274	102.539	87.1764	102.539	87.522	102.539	87.3335
105.469	87.6777	105.469	87.589	105.469	87.7805	105.469	87.5149	105.469	87.8949	105.469	87.4543	105.469	88.0172	105.469	87.4043	105.469	88.1424	105.469	87.361	105.469	88.2648	105.469	87.3197	105.469	88.3779	105.469	87.2763	105.469	88.4749	105.469	87.2276	105.469	88.5483	105.469	87.1723	105.469	88.5907	105.469	87.1119	105.469	88.5952	105.469	87.0506	105.469	88.5564	105.469	86.9958	105.469	88.4712	105.469	86.9571	105.469	88.3404	105.469	86.9457	105.469	88.1689	105.469	86.9725	105.469	87.9668	105.469	87.045	105.469	87.7483	105.469	87.1659	105.469	87.5306	105.469	87.3313
108.398	87.8243	108.398	87.7388	108.398	87.9222	108.398	87.6667	108.398	88.0304	108.398	87.6069	108.398	88.1449	108.398	87.5566	108.398	88.261	108.398	87.5119	108.398	88.3734	108.398	87.4682	108.398	88.4761	108.398	87.4214	108.398	88.5627	108.398	87.3684	108.398	88.6264	108.398	87.3079	108.398	88.6604	108.398	87.2413	108.398	88.6581	108.398	87.1729	108.398	88.6142	108.398	87.1101	108.398	88.5256	108.398	87.0628	108.398	88.3928	108.398	87.0423	108.398	88.2208	108.398	87.0598	108.398	88.0195	108.398	87.1234	108.398	87.8031	108.398	87.2363	108.398	87.589	108.398	87.3949
