"SPL Horizontal"																																																																							
"On-Axis"		"10°"		"-10°"		"20°"		"-20°"		"30°"		"-30°"		"40°"		"-40°"		"50°"		"-50°"		"60°"		"-60°"		"70°"		"-70°"		"80°"		"-80°"		"90°"		"-90°"		"100°"		"-100°"		"110°"		"-110°"		"120°"		"-120°"		"130°"		"-130°"		"140°"		"-140°"		"150°"		"-150°"		"160°"		"-160°"		"170°"		"-170°"		"180°"	
"Frequency [Hz]"	"Sound Pessure Level [dB]  / [2.83V 1m] "	"Frequency [Hz]"	"Sound Pessure Level [dB]  / [2.83V 1m] "	"Frequency [Hz]"	"Sound Pessure Level [dB]  / [2.83V 1m] "	"Frequency [Hz]"	"Sound Pessure Level [dB]  / [2.83V 1m] "	"Frequency [Hz]"	"Sound Pessure Level [dB]  / [2.83V 1m] "	"Frequency [Hz]"	"Sound Pessure Level [dB]  / [2.83V 1m] "	"Frequency [Hz]"	"Sound Pessure Level [dB]  / [2.83V 1m] "	"Frequency [Hz]"	"Sound Pessure Level [dB]  / [2.83V 1m] "	"Frequency [Hz]"	"Sound Pessure Level [dB]  / [2.83V 1m] "	"Frequency [Hz]"	"Sound Pessure Level [dB]  / [2.83V 1m] "	"Frequency [Hz]"	"Sound Pessure Level [dB]  / [2.83V 1m] "	"Frequency [Hz]"	"Sound Pessure Level [dB]  / [2.83V 1m] "	"Frequency [Hz]"	"Sound Pessure Level [dB]  / [2.83V 1m] "	"Frequency [Hz]"	"Sound Pessure Level [dB]  / [2.83V 1m] "	"Frequency [Hz]"	"Sound Pessure Level [dB]  / [2.83V 1m] "	"Frequency [Hz]"	"Sound Pessure Level [dB]  / [2.83V 1m] "	"Frequency [Hz]"	"Sound Pessure Level [dB]  / [2.83V 1m] "	"Frequency [Hz]"	"Sound Pessure Level [dB]  / [2.83V 1m] "	"Frequency [Hz]"	"Sound Pessure Level [dB]  / [2.83V 1m] "	"Frequency [Hz]"	"Sound Pessure Level [dB]  / [2.83V 1m] "	"Frequency [Hz]"	"Sound Pessure Level [dB]  / [2.83V 1m] "	"Frequency [Hz]"	"Sound Pessure Level [dB]  / [2.83V 1m] "	"Frequency [Hz]"	"Sound Pessure Level [dB]  / [2.83V 1m] "	"Frequency [Hz]"	"Sound Pessure Level [dB]  / [2.83V 1m] "	"Frequency [Hz]"	"Sound Pessure Level [dB]  / [2.83V 1m] "	"Frequency [Hz]"	"Sound Pessure Level [dB]  / [2.83V 1m] "	"Frequency [Hz]"	"Sound Pessure Level [dB]  / [2.83V 1m] "	"Frequency [Hz]"	"Sound Pessure Level [dB]  / [2.83V 1m] "	"Frequency [Hz]"	"Sound Pessure Level [dB]  / [2.83V 1m] "	"Frequency [Hz]"	"Sound Pessure Level [dB]  / [2.83V 1m] "	"Frequency [Hz]"	"Sound Pessure Level [dB]  / [2.83V 1m] "	"Frequency [Hz]"	"Sound Pessure Level [dB]  / [2.83V 1m] "	"Frequency [Hz]"	"Sound Pessure Level [dB]  / [2.83V 1m] "	"Frequency [Hz]"	"Sound Pessure Level [dB]  / [2.83V 1m] "	"Frequency [Hz]"	"Sound Pessure Level [dB]  / [2.83V 1m] "	"Frequency [Hz]"	"Sound Pessure Level [dB]  / [2.83V 1m] "
20.5078	65.5107	20.5078	65.5627	20.5078	65.5333	20.5078	65.6891	20.5078	65.6323	20.5078	65.8906	20.5078	65.8105	20.5078	66.1683	20.5078	66.0705	20.5078	66.5216	20.5078	66.4133	20.5078	66.9478	20.5078	66.8365	20.5078	67.4399	20.5078	67.333	20.5078	67.9868	20.5078	67.8905	20.5078	68.5729	20.5078	68.4915	20.5078	69.1794	20.5078	69.1148	20.5078	69.7847	20.5078	69.7369	20.5078	70.3667	20.5078	70.334	20.5078	70.9034	20.5078	70.8829	20.5078	71.374	20.5078	71.3627	20.5078	71.7606	20.5078	71.7552	20.5078	72.0481	20.5078	72.046	20.5078	72.2253	20.5078	72.2247	20.5078	72.285
21.2402	67.2241	21.2402	67.2505	21.2402	67.2419	21.2402	67.3227	21.2402	67.3046	21.2402	67.4449	21.2402	67.4155	21.2402	67.6228	21.2402	67.5801	21.2402	67.8619	21.2402	67.8041	21.2402	68.1665	21.2402	68.0926	21.2402	68.537	21.2402	68.4475	21.2402	68.969	21.2402	68.866	21.2402	69.4522	21.2402	69.3395	21.2402	69.9706	21.2402	69.8529	21.2402	70.5036	21.2402	70.3864	21.2402	71.0277	21.2402	70.9165	21.2402	71.519	21.2402	71.4185	21.2402	71.9542	21.2402	71.8687	21.2402	72.3127	21.2402	72.2457	21.2402	72.5778	21.2402	72.5317	21.2402	72.7371	21.2402	72.7136	21.2402	72.7831
21.9727	68.3959	21.9727	68.4092	21.9727	68.4072	21.9727	68.4493	21.9727	68.4434	21.9727	68.5211	21.9727	68.5079	21.9727	68.6315	21.9727	68.6062	21.9727	68.7888	21.9727	68.7458	21.9727	69.0007	21.9727	68.9349	21.9727	69.2726	21.9727	69.1804	21.9727	69.6059	21.9727	69.4862	21.9727	69.9955	21.9727	69.8506	21.9727	70.4298	21.9727	70.2655	21.9727	70.8907	21.9727	70.7154	21.9727	71.3555	21.9727	71.1795	21.9727	71.7992	21.9727	71.633	21.9727	72.1969	21.9727	72.0506	21.9727	72.5262	21.9727	72.4085	21.9727	72.7685	21.9727	72.6863	21.9727	72.9106	21.9727	72.8683	21.9727	72.9444
22.7051	68.7794	22.7051	68.791	22.7051	68.7747	22.7051	68.8119	22.7051	68.7772	22.7051	68.8469	22.7051	68.79	22.7051	68.9032	22.7051	68.8191	22.7051	68.9902	22.7051	68.8728	22.7051	69.1177	22.7051	68.9617	22.7051	69.2952	22.7051	69.0971	22.7051	69.5289	22.7051	69.2888	22.7051	69.8199	22.7051	69.5429	22.7051	70.1619	22.7051	69.8581	22.7051	70.541	22.7051	70.2248	22.7051	70.9364	22.7051	70.6248	22.7051	71.3233	22.7051	71.0335	22.7051	71.6756	22.7051	71.4236	22.7051	71.9688	22.7051	71.768	22.7051	72.1826	22.7051	72.0431	22.7051	72.3021	22.7051	72.2307	22.7051	72.3187
23.4375	68.201	23.4375	68.1995	23.4375	68.184	23.4375	68.1821	23.4375	68.1483	23.4375	68.1534	23.4375	68.0956	23.4375	68.1208	23.4375	68.0307	23.4375	68.0939	23.4375	67.9609	23.4375	68.0851	23.4375	67.8976	23.4375	68.1084	23.4375	67.8553	23.4375	68.1774	23.4375	67.8518	23.4375	68.3028	23.4375	67.9049	23.4375	68.4884	23.4375	68.0285	23.4375	68.7285	23.4375	68.2279	23.4375	69.0071	23.4375	68.4956	23.4375	69.2999	23.4375	68.8113	23.4375	69.5782	23.4375	69.1453	23.4375	69.8134	23.4375	69.4641	23.4375	69.9809	23.4375	69.7365	23.4375	70.0625	23.4375	69.9369	23.4375	70.0483
24.1699	67.3268	24.1699	67.3027	24.1699	67.3089	24.1699	67.238	24.1699	67.2484	24.1699	67.135	24.1699	67.1457	24.1699	66.9976	24.1699	67.0024	24.1699	66.8318	24.1699	66.8219	24.1699	66.6466	24.1699	66.6102	24.1699	66.4543	24.1699	66.3774	24.1699	66.2713	24.1699	66.1386	24.1699	66.1166	24.1699	65.9144	24.1699	66.0087	24.1699	65.7298	24.1699	65.9615	24.1699	65.6096	24.1699	65.9781	24.1699	65.5721	24.1699	66.0485	24.1699	65.621	24.1699	66.1507	24.1699	65.7426	24.1699	66.2554	24.1699	65.9079	24.1699	66.3334	24.1699	66.0814	24.1699	66.3617	24.1699	66.2295	24.1699	66.3272
25.6348	55.3228	25.6348	55.1102	25.6348	55.3156	25.6348	54.6681	25.6348	55.1008	25.6348	53.9927	25.6348	54.6988	25.6348	53.1083	25.6348	54.1573	25.6348	52.1315	25.6348	53.5886	25.6348	51.3958	25.6348	53.2155	25.6348	51.461	25.6348	53.3405	25.6348	52.5852	25.6348	54.129	25.6348	54.3484	25.6348	55.4294	25.6348	56.2239	25.6348	56.9365	25.6348	57.9488	25.6348	58.4184	25.6348	59.4403	25.6348	59.7567	25.6348	60.685	25.6348	60.9031	25.6348	61.6894	25.6348	61.8409	25.6348	62.4631	25.6348	62.5662	25.6348	63.0145	25.6348	63.079	25.6348	63.3491	25.6348	63.3803	25.6348	63.4705
26.3672	53.5661	26.3672	53.8157	26.3672	53.6296	26.3672	54.381	26.3672	54.0144	26.3672	55.2537	26.3672	54.729	26.3672	56.3893	26.3672	55.7511	26.3672	57.708	26.3672	57.0124	26.3672	59.1198	26.3672	58.4177	26.3672	60.5475	26.3672	59.8753	26.3672	61.9353	26.3672	61.3147	26.3672	63.2465	26.3672	62.6886	26.3672	64.4576	26.3672	63.9667	26.3672	65.5529	26.3672	65.1296	26.3672	66.5211	26.3672	66.1642	26.3672	67.3531	26.3672	67.0604	26.3672	68.0412	26.3672	67.8104	26.3672	68.5783	26.3672	68.4073	26.3672	68.9586	26.3672	68.8457	26.3672	69.1776	26.3672	69.1215	26.3672	69.2324
27.0996	62.8667	27.0996	62.9424	27.0996	62.874	27.0996	63.1067	27.0996	62.9673	27.0996	63.3714	27.0996	63.158	27.0996	63.7493	27.0996	63.4616	27.0996	64.2479	27.0996	63.8913	27.0996	64.8636	27.0996	64.4509	27.0996	65.5798	27.0996	65.1301	27.0996	66.3693	27.0996	65.9043	27.0996	67.1988	27.0996	66.7396	27.0996	68.0336	27.0996	67.5978	27.0996	68.8413	27.0996	68.4424	27.0996	69.5932	27.0996	69.2407	27.0996	70.2649	27.0996	69.9652	27.0996	70.836	27.0996	70.5931	27.0996	71.2903	27.0996	71.1065	27.0996	71.6149	27.0996	71.4918	27.0996	71.8009	27.0996	71.7392	27.0996	71.8429
27.832	65.5728	27.832	65.6334	27.832	65.5529	27.832	65.7398	27.832	65.5757	27.832	65.9033	27.832	65.6506	27.832	66.1382	27.832	65.793	27.832	66.4583	27.832	66.0214	27.832	66.8725	27.832	66.3526	27.832	67.3804	27.832	66.7954	27.832	67.9706	27.832	67.3459	27.832	68.6217	27.832	67.9862	27.832	69.3051	27.832	68.6871	27.832	69.9894	27.832	69.4128	27.832	70.6436	27.832	70.127	27.832	71.2393	27.832	70.7956	27.832	71.7519	27.832	71.3898	27.832	72.1611	27.832	71.8861	27.832	72.4512	27.832	72.2664	27.832	72.611	27.832	72.5183	27.832	72.6341
29.2969	67.8189	29.2969	67.8339	29.2969	67.805	29.2969	67.8542	29.2969	67.7934	29.2969	67.889	29.2969	67.7905	29.2969	67.9519	29.2969	67.8085	29.2969	68.0599	29.2969	67.8642	29.2969	68.2308	29.2969	67.9776	29.2969	68.4794	29.2969	68.1688	29.2969	68.8131	29.2969	68.4519	29.2969	69.2284	29.2969	68.831	29.2969	69.7096	29.2969	69.2956	29.2969	70.2313	29.2969	69.8222	29.2969	70.7616	29.2969	70.378	29.2969	71.2677	29.2969	70.9265	29.2969	71.7186	29.2969	71.4329	29.2969	72.088	29.2969	71.8671	29.2969	72.3555	29.2969	72.2052	29.2969	72.5062	29.2969	72.4303	29.2969	72.5319
30.0293	67.9615	30.0293	67.9647	30.0293	67.9502	30.0293	67.9642	30.0293	67.9312	30.0293	67.9695	30.0293	67.9101	30.0293	67.9949	30.0293	67.8981	30.0293	68.0584	30.0293	67.9114	30.0293	68.1802	30.0293	67.9709	30.0293	68.3782	30.0293	68.0991	30.0293	68.6639	30.0293	68.3155	30.0293	69.0375	30.0293	68.6306	30.0293	69.4855	30.0293	69.0405	30.0293	69.9827	30.0293	69.5257	30.0293	70.4963	30.0293	70.0547	30.0293	70.991	30.0293	70.5895	30.0293	71.4339	30.0293	71.0922	30.0293	71.7968	30.0293	71.5295	30.0293	72.0577	30.0293	71.8746	30.0293	72.2012	30.0293	72.1083	30.0293	72.2188
31.4941	68.9515	31.4941	68.9493	31.4941	68.945	31.4941	68.9422	31.4941	68.9298	31.4941	68.9387	31.4941	68.911	31.4941	68.9517	31.4941	68.8979	31.4941	68.9976	31.4941	68.9049	31.4941	69.095	31.4941	68.9501	31.4941	69.2614	31.4941	69.0539	31.4941	69.5089	31.4941	69.2348	31.4941	69.8397	31.4941	69.5043	31.4941	70.2437	31.4941	69.862	31.4941	70.6987	31.4941	70.2933	31.4941	71.1744	31.4941	70.7714	31.4941	71.637	31.4941	71.2618	31.4941	72.0539	31.4941	71.7285	31.4941	72.3969	31.4941	72.1387	31.4941	72.6439	31.4941	72.4652	31.4941	72.7793	31.4941	72.688	31.4941	72.7945
32.2266	69.6889	32.2266	69.6814	32.2266	69.6876	32.2266	69.669	32.2266	69.6773	32.2266	69.6595	32.2266	69.6614	32.2266	69.6646	32.2266	69.6477	32.2266	69.6992	32.2266	69.6477	32.2266	69.78	32.2266	69.6771	32.2266	69.9233	32.2266	69.7536	32.2266	70.1408	32.2266	69.8949	32.2266	70.4356	32.2266	70.1139	32.2266	70.7995	32.2266	70.4142	32.2266	71.2132	32.2266	70.7872	32.2266	71.649	32.2266	71.2116	32.2266	72.0749	32.2266	71.6573	32.2266	72.4595	32.2266	72.0904	32.2266	72.7752	32.2266	72.4781	32.2266	73	32.2266	72.7924	32.2266	73.1187	32.2266	73.0121	32.2266	73.123
33.6914	70.8776	33.6914	70.8752	33.6914	70.8696	33.6914	70.8654	33.6914	70.8507	33.6914	70.8544	33.6914	70.8238	33.6914	70.8514	33.6914	70.795	33.6914	70.8682	33.6914	70.7736	33.6914	70.9186	33.6914	70.7725	33.6914	71.0169	33.6914	70.8071	33.6914	71.1743	33.6914	70.8938	33.6914	71.3966	33.6914	71.0461	33.6914	71.6806	33.6914	71.2713	33.6914	72.0131	33.6914	71.566	33.6914	72.3723	33.6914	71.9155	33.6914	72.7306	33.6914	72.2949	33.6914	73.0592	33.6914	72.6736	33.6914	73.3312	33.6914	73.0203	33.6914	73.5245	33.6914	73.3071	33.6914	73.6234	33.6914	73.5117	33.6914	73.6195
34.4238	71.2901	34.4238	71.2858	34.4238	71.2824	34.4238	71.2723	34.4238	71.2625	34.4238	71.2552	34.4238	71.233	34.4238	71.2426	34.4238	71.1993	34.4238	71.2454	34.4238	71.1697	34.4238	71.2763	34.4238	71.1558	34.4238	71.349	34.4238	71.1719	34.4238	71.4751	34.4238	71.2334	34.4238	71.6616	34.4238	71.3538	34.4238	71.9074	34.4238	71.5416	34.4238	72.202	34.4238	71.7959	34.4238	72.526	34.4238	72.105	34.4238	72.8539	34.4238	72.4472	34.4238	73.1576	34.4238	72.794	34.4238	73.4109	34.4238	73.1154	34.4238	73.5915	34.4238	73.3837	34.4238	73.6837	34.4238	73.5766	34.4238	73.679
35.8887	71.9048	35.8887	71.8996	35.8887	71.8975	35.8887	71.8842	35.8887	71.8775	35.8887	71.8635	35.8887	71.8469	35.8887	71.8447	35.8887	71.8103	35.8887	71.8372	35.8887	71.7753	35.8887	71.8527	35.8887	71.7521	35.8887	71.9033	35.8887	71.7534	35.8887	72.0006	35.8887	71.7933	35.8887	72.152	35.8887	71.885	35.8887	72.3584	35.8887	72.0376	35.8887	72.6121	35.8887	72.2521	35.8887	72.8967	35.8887	72.5198	35.8887	73.1893	35.8887	72.8221	35.8887	73.464	35.8887	73.1333	35.8887	73.6953	35.8887	73.4251	35.8887	73.8615	35.8887	73.6707	35.8887	73.9469	35.8887	73.8483	35.8887	73.9427
37.3535	72.618	37.3535	72.612	37.3535	72.6125	37.3535	72.5967	37.3535	72.5955	37.3535	72.5762	37.3535	72.5686	37.3535	72.5569	37.3535	72.536	37.3535	72.547	37.3535	72.5039	37.3535	72.5568	37.3535	72.4811	37.3535	72.5972	37.3535	72.4788	37.3535	72.6787	37.3535	72.5093	37.3535	72.8087	37.3535	72.5846	37.3535	72.9887	37.3535	72.7136	37.3535	73.213	37.3535	72.8984	37.3535	73.4676	37.3535	73.1327	37.3535	73.732	37.3535	73.401	37.3535	73.9822	37.3535	73.6807	37.3535	74.1943	37.3535	73.9457	37.3535	74.3473	37.3535	74.1706	37.3535	74.426	37.3535	74.3343	37.3535	74.4219
38.8184	73.3919	38.8184	73.386	38.8184	73.3886	38.8184	73.3728	38.8184	73.376	38.8184	73.3555	38.8184	73.3558	38.8184	73.3397	38.8184	73.3315	38.8184	73.3323	38.8184	73.3085	38.8184	73.342	38.8184	73.2945	38.8184	73.3784	38.8184	73.2987	38.8184	73.4506	38.8184	73.3316	38.8184	73.5651	38.8184	73.4031	38.8184	73.7242	38.8184	73.5207	38.8184	73.9234	38.8184	73.6863	38.8184	74.1512	38.8184	73.8946	38.8184	74.3897	38.8184	74.1325	38.8184	74.6176	38.8184	74.3805	38.8184	74.8128	38.8184	74.6154	38.8184	74.9558	38.8184	74.8145	38.8184	75.0319	38.8184	74.9583	38.8184	75.033
39.5508	73.8215	39.5508	73.8118	39.5508	73.8232	39.5508	73.7958	39.5508	73.8167	39.5508	73.7766	39.5508	73.8034	39.5508	73.7591	39.5508	73.7864	39.5508	73.75	39.5508	73.7703	39.5508	73.7571	39.5508	73.7618	39.5508	73.7893	39.5508	73.7689	39.5508	73.855	39.5508	73.8009	39.5508	73.9607	39.5508	73.8667	39.5508	74.1084	39.5508	73.9731	39.5508	74.2944	39.5508	74.1225	39.5508	74.508	39.5508	74.3107	39.5508	74.7329	39.5508	74.5266	39.5508	74.9488	39.5508	74.7527	39.5508	75.1347	39.5508	74.9679	39.5508	75.2718	39.5508	75.1507	39.5508	75.3462	39.5508	75.2826	39.5508	75.3499
41.0156	74.7356	41.0156	74.7332	41.0156	74.7327	41.0156	74.7269	41.0156	74.7242	41.0156	74.7192	41.0156	74.7113	41.0156	74.7141	41.0156	74.6961	41.0156	74.7166	41.0156	74.6825	41.0156	74.7331	41.0156	74.6756	41.0156	74.7703	41.0156	74.6821	41.0156	74.8347	41.0156	74.7096	41.0156	74.9312	41.0156	74.7658	41.0156	75.0615	41.0156	74.8569	41.0156	75.2223	41.0156	74.9855	41.0156	75.4051	41.0156	75.1493	41.0156	75.5963	41.0156	75.3393	41.0156	75.7789	41.0156	75.5409	41.0156	75.9346	41.0156	75.7356	41.0156	76.0471	41.0156	75.9041	41.0156	76.1038	41.0156	76.0291	41.0156	76.0979
42.4805	75.4701	42.4805	75.4661	42.4805	75.4706	42.4805	75.4596	42.4805	75.4675	42.4805	75.4526	42.4805	75.4616	42.4805	75.4481	42.4805	75.4548	42.4805	75.4499	42.4805	75.4501	42.4805	75.4631	42.4805	75.4515	42.4805	75.4934	42.4805	75.4644	42.4805	75.5462	42.4805	75.495	42.4805	75.6264	42.4805	75.5495	42.4805	75.7363	42.4805	75.6329	42.4805	75.8743	42.4805	75.7474	42.4805	76.0343	42.4805	75.891	42.4805	76.2051	42.4805	76.0562	42.4805	76.3719	42.4805	76.2304	42.4805	76.518	42.4805	76.3974	42.4805	76.6278	42.4805	76.54	42.4805	76.6889	42.4805	76.6427	42.4805	76.6942
43.9453	76.3458	43.9453	76.3434	43.9453	76.3459	43.9453	76.3395	43.9453	76.3437	43.9453	76.3358	43.9453	76.3399	43.9453	76.3344	43.9453	76.336	43.9453	76.3387	43.9453	76.3342	43.9453	76.3527	43.9453	76.338	43.9453	76.3812	43.9453	76.3515	43.9453	76.4289	43.9453	76.3798	43.9453	76.5001	43.9453	76.4281	43.9453	76.5969	43.9453	76.5007	43.9453	76.7182	43.9453	76.5998	43.9453	76.8589	43.9453	76.7241	43.9453	77.0091	43.9453	76.8677	43.9453	77.1559	43.9453	77.0202	43.9453	77.2844	43.9453	77.1677	43.9453	77.3804	43.9453	77.2949	43.9453	77.4329	43.9453	77.3876	43.9453	77.4355
45.4102	76.8848	45.4102	76.8829	45.4102	76.885	45.4102	76.8801	45.4102	76.8836	45.4102	76.8775	45.4102	76.881	45.4102	76.8769	45.4102	76.8783	45.4102	76.8812	45.4102	76.8775	45.4102	76.8935	45.4102	76.8812	45.4102	76.9179	45.4102	76.8928	45.4102	76.9586	45.4102	76.9165	45.4102	77.0191	45.4102	76.9567	45.4102	77.1017	45.4102	77.0174	45.4102	77.2056	45.4102	77.1007	45.4102	77.3267	45.4102	77.206	45.4102	77.4568	45.4102	77.3288	45.4102	77.5844	45.4102	77.4606	45.4102	77.6964	45.4102	77.5891	45.4102	77.7801	45.4102	77.701	45.4102	77.8254	45.4102	77.7835	45.4102	77.8266
47.6074	77.7653	47.6074	77.7642	47.6074	77.7669	47.6074	77.7639	47.6074	77.769	47.6074	77.7653	47.6074	77.7717	47.6074	77.7693	47.6074	77.7758	47.6074	77.7777	47.6074	77.7822	47.6074	77.7927	47.6074	77.7927	47.6074	77.817	47.6074	77.8095	47.6074	77.8536	47.6074	77.8355	47.6074	77.9054	47.6074	77.8736	47.6074	77.9742	47.6074	77.9269	47.6074	78.0598	47.6074	77.9972	47.6074	78.1595	47.6074	78.0841	47.6074	78.267	47.6074	78.1843	47.6074	78.3734	47.6074	78.2913	47.6074	78.468	47.6074	78.3955	47.6074	78.5399	47.6074	78.4857	47.6074	78.5805	47.6074	78.5515	47.6074	78.5845
49.0723	78.3661	49.0723	78.3653	49.0723	78.3687	49.0723	78.3665	49.0723	78.3731	49.0723	78.3703	49.0723	78.3795	49.0723	78.3774	49.0723	78.388	49.0723	78.3888	49.0723	78.3995	49.0723	78.4063	49.0723	78.4149	49.0723	78.4319	49.0723	78.4358	49.0723	78.4679	49.0723	78.4643	49.0723	78.5167	49.0723	78.5027	49.0723	78.5798	49.0723	78.5534	49.0723	78.6573	49.0723	78.6178	49.0723	78.7469	49.0723	78.6957	49.0723	78.8433	49.0723	78.7844	49.0723	78.9389	49.0723	78.8784	49.0723	79.0243	49.0723	78.9695	49.0723	79.0897	49.0723	79.0481	49.0723	79.1274	49.0723	79.1049	49.0723	79.1326
50.5371	78.8819	50.5371	78.8811	50.5371	78.8855	50.5371	78.8832	50.5371	78.8919	50.5371	78.8886	50.5371	78.901	50.5371	78.8975	50.5371	78.9128	50.5371	78.9107	50.5371	78.9277	50.5371	78.9293	50.5371	78.946	50.5371	78.9546	50.5371	78.9689	50.5371	78.9886	50.5371	78.9977	50.5371	79.033	50.5371	79.0341	50.5371	79.0892	50.5371	79.08	50.5371	79.1574	50.5371	79.1368	50.5371	79.2358	50.5371	79.2043	50.5371	79.3202	50.5371	79.2806	50.5371	79.4041	50.5371	79.3612	50.5371	79.4793	50.5371	79.4392	50.5371	79.5375	50.5371	79.5064	50.5371	79.5717	50.5371	79.5547	50.5371	79.5776
52.7344	79.6844	52.7344	79.685	52.7344	79.6881	52.7344	79.69	52.7344	79.6963	52.7344	79.6992	52.7344	79.7085	52.7344	79.7124	52.7344	79.7246	52.7344	79.7296	52.7344	79.7442	52.7344	79.7511	52.7344	79.7673	52.7344	79.7774	52.7344	79.7939	52.7344	79.8097	52.7344	79.8247	52.7344	79.8491	52.7344	79.8605	52.7344	79.8968	52.7344	79.9024	52.7344	79.953	52.7344	79.9514	52.7344	80.017	52.7344	80.0077	52.7344	80.0858	52.7344	80.0698	52.7344	80.1545	52.7344	80.1344	52.7344	80.2168	52.7344	80.1963	52.7344	80.2658	52.7344	80.2491	52.7344	80.2957	52.7344	80.2863	52.7344	80.3027
54.1992	80.1511	54.1992	80.1521	54.1992	80.1554	54.1992	80.1581	54.1992	80.1648	54.1992	80.1688	54.1992	80.179	54.1992	80.1838	54.1992	80.1976	54.1992	80.2027	54.1992	80.22	54.1992	80.2253	54.1992	80.2457	54.1992	80.252	54.1992	80.2744	54.1992	80.2832	54.1992	80.3063	54.1992	80.3199	54.1992	80.3417	54.1992	80.3631	54.1992	80.3814	54.1992	80.4132	54.1992	80.426	54.1992	80.4696	54.1992	80.4758	54.1992	80.5301	54.1992	80.5297	54.1992	80.5907	54.1992	80.585	54.1992	80.646	54.1992	80.6377	54.1992	80.69	54.1992	80.6821	54.1992	80.7176	54.1992	80.7128	54.1992	80.7254
56.3965	80.7915	56.3965	80.7921	56.3965	80.7975	56.3965	80.7989	56.3965	80.81	56.3965	80.8115	56.3965	80.8283	56.3965	80.8291	56.3965	80.8519	56.3965	80.8509	56.3965	80.8795	56.3965	80.8762	56.3965	80.9103	56.3965	80.9046	56.3965	80.9434	56.3965	80.9363	56.3965	80.9781	56.3965	80.9716	56.3965	81.0143	56.3965	81.0111	56.3965	81.0522	56.3965	81.0552	56.3965	81.0922	56.3965	81.1038	56.3965	81.1346	56.3965	81.1553	56.3965	81.1786	56.3965	81.2068	56.3965	81.2226	56.3965	81.2541	56.3965	81.2635	56.3965	81.2925	56.3965	81.2973	56.3965	81.3177	56.3965	81.3196	56.3965	81.3269
