"SPL Vertical"																																																																							
"On-Axis"		"10°"		"-10°"		"20°"		"-20°"		"30°"		"-30°"		"40°"		"-40°"		"50°"		"-50°"		"60°"		"-60°"		"70°"		"-70°"		"80°"		"-80°"		"90°"		"-90°"		"100°"		"-100°"		"110°"		"-110°"		"120°"		"-120°"		"130°"		"-130°"		"140°"		"-140°"		"150°"		"-150°"		"160°"		"-160°"		"170°"		"-170°"		"180°"	
"Frequency [Hz]"	"Sound Pessure Level [dB]  / [2.83V 1m] "	"Frequency [Hz]"	"Sound Pessure Level [dB]  / [2.83V 1m] "	"Frequency [Hz]"	"Sound Pessure Level [dB]  / [2.83V 1m] "	"Frequency [Hz]"	"Sound Pessure Level [dB]  / [2.83V 1m] "	"Frequency [Hz]"	"Sound Pessure Level [dB]  / [2.83V 1m] "	"Frequency [Hz]"	"Sound Pessure Level [dB]  / [2.83V 1m] "	"Frequency [Hz]"	"Sound Pessure Level [dB]  / [2.83V 1m] "	"Frequency [Hz]"	"Sound Pessure Level [dB]  / [2.83V 1m] "	"Frequency [Hz]"	"Sound Pessure Level [dB]  / [2.83V 1m] "	"Frequency [Hz]"	"Sound Pessure Level [dB]  / [2.83V 1m] "	"Frequency [Hz]"	"Sound Pessure Level [dB]  / [2.83V 1m] "	"Frequency [Hz]"	"Sound Pessure Level [dB]  / [2.83V 1m] "	"Frequency [Hz]"	"Sound Pessure Level [dB]  / [2.83V 1m] "	"Frequency [Hz]"	"Sound Pessure Level [dB]  / [2.83V 1m] "	"Frequency [Hz]"	"Sound Pessure Level [dB]  / [2.83V 1m] "	"Frequency [Hz]"	"Sound Pessure Level [dB]  / [2.83V 1m] "	"Frequency [Hz]"	"Sound Pessure Level [dB]  / [2.83V 1m] "	"Frequency [Hz]"	"Sound Pessure Level [dB]  / [2.83V 1m] "	"Frequency [Hz]"	"Sound Pessure Level [dB]  / [2.83V 1m] "	"Frequency [Hz]"	"Sound Pessure Level [dB]  / [2.83V 1m] "	"Frequency [Hz]"	"Sound Pessure Level [dB]  / [2.83V 1m] "	"Frequency [Hz]"	"Sound Pessure Level [dB]  / [2.83V 1m] "	"Frequency [Hz]"	"Sound Pessure Level [dB]  / [2.83V 1m] "	"Frequency [Hz]"	"Sound Pessure Level [dB]  / [2.83V 1m] "	"Frequency [Hz]"	"Sound Pessure Level [dB]  / [2.83V 1m] "	"Frequency [Hz]"	"Sound Pessure Level [dB]  / [2.83V 1m] "	"Frequency [Hz]"	"Sound Pessure Level [dB]  / [2.83V 1m] "	"Frequency [Hz]"	"Sound Pessure Level [dB]  / [2.83V 1m] "	"Frequency [Hz]"	"Sound Pessure Level [dB]  / [2.83V 1m] "	"Frequency [Hz]"	"Sound Pessure Level [dB]  / [2.83V 1m] "	"Frequency [Hz]"	"Sound Pessure Level [dB]  / [2.83V 1m] "	"Frequency [Hz]"	"Sound Pessure Level [dB]  / [2.83V 1m] "	"Frequency [Hz]"	"Sound Pessure Level [dB]  / [2.83V 1m] "	"Frequency [Hz]"	"Sound Pessure Level [dB]  / [2.83V 1m] "	"Frequency [Hz]"	"Sound Pessure Level [dB]  / [2.83V 1m] "	"Frequency [Hz]"	"Sound Pessure Level [dB]  / [2.83V 1m] "
20.5078	65.5107	20.5078	65.5986	20.5078	65.4979	20.5078	65.7607	20.5078	65.5626	20.5078	65.9956	20.5078	65.7086	20.5078	66.3014	20.5078	65.9405	20.5078	66.6744	20.5078	66.2625	20.5078	67.1082	20.5078	66.6762	20.5078	67.5942	20.5078	67.1774	20.5078	68.1212	20.5078	67.7549	20.5078	68.676	20.5078	68.3893	20.5078	69.2439	20.5078	69.0544	20.5078	69.809	20.5078	69.7201	20.5078	70.3547	20.5078	70.3556	20.5078	70.8637	20.5078	70.9324	20.5078	71.3189	20.5078	71.4262	20.5078	71.7033	20.5078	71.8183	20.5078	72.0013	20.5078	72.0958	20.5078	72.1989	20.5078	72.2518	20.5078	72.285
21.2402	67.2241	21.2402	67.2432	21.2402	67.2512	21.2402	67.312	21.2402	67.323	21.2402	67.4354	21.2402	67.4409	21.2402	67.6179	21.2402	67.6088	21.2402	67.863	21.2402	67.8332	21.2402	68.1714	21.2402	68.121	21.2402	68.5403	21.2402	68.4774	21.2402	68.9631	21.2402	68.9027	21.2402	69.4291	21.2402	69.3898	21.2402	69.9246	21.2402	69.9228	21.2402	70.433	21.2402	70.4779	21.2402	70.9357	21.2402	71.0266	21.2402	71.4134	21.2402	71.539	21.2402	71.8465	21.2402	71.9875	21.2402	72.216	21.2402	72.3495	21.2402	72.5047	21.2402	72.6084	21.2402	72.6975	21.2402	72.7541	21.2402	72.7831
21.9727	68.3959	21.9727	68.3666	21.9727	68.4528	21.9727	68.3701	21.9727	68.5342	21.9727	68.4133	21.9727	68.6403	21.9727	68.5038	21.9727	68.7739	21.9727	68.6489	21.9727	68.9409	21.9727	68.854	21.9727	69.1494	21.9727	69.1213	21.9727	69.4075	21.9727	69.449	21.9727	69.7214	21.9727	69.8302	21.9727	70.0918	21.9727	70.2536	21.9727	70.5111	21.9727	70.7035	21.9727	70.963	21.9727	71.1614	21.9727	71.4234	21.9727	71.6064	21.9727	71.864	21.9727	72.0176	21.9727	72.2567	21.9727	72.3741	21.9727	72.5767	21.9727	72.6574	21.9727	72.805	21.9727	72.8514	21.9727	72.9294	21.9727	72.9444
22.7051	68.7794	22.7051	68.7038	22.7051	68.8656	22.7051	68.645	22.7051	68.9585	22.7051	68.611	22.7051	69.0571	22.7051	68.6115	22.7051	69.1633	22.7051	68.6568	22.7051	69.2818	22.7051	68.7565	22.7051	69.4204	22.7051	68.9179	22.7051	69.589	22.7051	69.1447	22.7051	69.7975	22.7051	69.4352	22.7051	70.053	22.7051	69.7816	22.7051	70.3563	22.7051	70.1702	22.7051	70.6991	22.7051	70.5821	22.7051	71.0637	22.7051	70.9956	22.7051	71.4252	22.7051	71.3873	22.7051	71.7555	22.7051	71.7343	22.7051	72.0283	22.7051	72.0158	22.7051	72.2217	22.7051	72.2148	22.7051	72.321	22.7051	72.3187
23.4375	68.201	23.4375	68.0546	23.4375	68.3328	23.4375	67.9003	23.4375	68.4453	23.4375	67.7472	23.4375	68.5359	23.4375	67.6065	23.4375	68.6041	23.4375	67.4913	23.4375	68.6525	23.4375	67.4169	23.4375	68.6868	23.4375	67.3983	23.4375	68.7168	23.4375	67.449	23.4375	68.7556	23.4375	67.5775	23.4375	68.8187	23.4375	67.7848	23.4375	68.9196	23.4375	68.0625	23.4375	69.066	23.4375	68.3931	23.4375	69.2547	23.4375	68.7522	23.4375	69.4704	23.4375	69.1119	23.4375	69.6882	23.4375	69.4438	23.4375	69.879	23.4375	69.7228	23.4375	70.0153	23.4375	69.9288	23.4375	70.0759	23.4375	70.0483
24.1699	67.3268	24.1699	67.1141	24.1699	67.5005	24.1699	66.8673	24.1699	67.6308	24.1699	66.5925	24.1699	67.7142	24.1699	66.2978	24.1699	67.7478	24.1699	65.9932	24.1699	67.7301	24.1699	65.6923	24.1699	67.6616	24.1699	65.4124	24.1699	67.5461	24.1699	65.174	24.1699	67.3916	24.1699	64.9997	24.1699	67.2116	24.1699	64.9094	24.1699	67.0245	24.1699	64.9157	24.1699	66.8515	24.1699	65.0183	24.1699	66.7116	24.1699	65.2026	24.1699	66.6153	24.1699	65.4414	24.1699	66.5593	24.1699	65.7019	24.1699	66.5272	24.1699	65.9518	24.1699	66.4939	24.1699	66.1654	24.1699	66.4337	24.1699	66.3272
25.6348	55.3228	25.6348	54.4852	25.6348	55.9264	25.6348	53.4342	25.6348	56.296	25.6348	52.2643	25.6348	56.433	25.6348	51.2632	25.6348	56.3372	25.6348	50.9794	25.6348	56.0114	25.6348	51.7947	25.6348	55.4791	25.6348	53.3909	25.6348	54.8268	25.6348	55.209	25.6348	54.2807	25.6348	56.9378	25.6348	54.2338	25.6348	58.4737	25.6348	54.9829	25.6348	59.7974	25.6348	56.3672	25.6348	60.9138	25.6348	57.9691	25.6348	61.8311	25.6348	59.4874	25.6348	62.5545	25.6348	60.7904	25.6348	63.0849	25.6348	61.838	25.6348	63.4192	25.6348	62.6269	25.6348	63.5508	25.6348	63.1668	25.6348	63.4705
26.3672	53.5661	26.3672	54.4345	26.3672	52.9534	26.3672	55.5156	26.3672	52.6372	26.3672	56.7484	26.3672	52.6887	26.3672	58.0636	26.3672	53.2097	26.3672	59.3997	26.3672	54.254	26.3672	60.7114	26.3672	55.7414	26.3672	61.9689	26.3672	57.4878	26.3672	63.1543	26.3672	59.3082	26.3672	64.2567	26.3672	61.0747	26.3672	65.2687	26.3672	62.7142	26.3672	66.1843	26.3672	64.1892	26.3672	66.9971	26.3672	65.4815	26.3672	67.6999	26.3672	66.583	26.3672	68.284	26.3672	67.4908	26.3672	68.7399	26.3672	68.2057	26.3672	69.057	26.3672	68.7305	26.3672	69.2246	26.3672	69.0705	26.3672	69.2324
27.0996	62.8667	27.0996	63.0618	27.0996	62.7548	27.0996	63.3479	27.0996	62.7234	27.0996	63.7326	27.0996	62.7799	27.0996	64.2176	27.0996	62.9436	27.0996	64.7965	27.0996	63.2425	27.0996	65.4544	27.0996	63.7033	27.0996	66.1705	27.0996	64.3376	27.0996	66.9212	27.0996	65.131	27.0996	67.6828	27.0996	66.0422	27.0996	68.4328	27.0996	67.0143	27.0996	69.1509	27.0996	67.988	27.0996	69.818	27.0996	68.9113	27.0996	70.4169	27.0996	69.7438	27.0996	70.9308	27.0996	70.4565	27.0996	71.3441	27.0996	71.0306	27.0996	71.6424	27.0996	71.455	27.0996	71.8124	27.0996	71.7255	27.0996	71.8429
27.832	65.5728	27.832	65.6343	27.832	65.5566	27.832	65.7523	27.832	65.5796	27.832	65.9402	27.832	65.6438	27.832	66.21	27.832	65.76	27.832	66.5687	27.832	65.9476	27.832	67.0155	27.832	66.2307	27.832	67.5412	27.832	66.6311	27.832	68.1295	27.832	67.1587	27.832	68.7592	27.832	67.8035	27.832	69.4069	27.832	68.5348	27.832	70.0486	27.832	69.308	27.832	70.6615	27.832	70.0738	27.832	71.2237	27.832	70.7874	27.832	71.7152	27.832	71.4125	27.832	72.1173	27.832	71.9227	27.832	72.4136	27.832	72.3012	27.832	72.5896	27.832	72.539	27.832	72.6341
29.2969	67.8189	29.2969	67.7683	29.2969	67.876	29.2969	67.7357	29.2969	67.9323	29.2969	67.7364	29.2969	67.9863	29.2969	67.7871	29.2969	68.0423	29.2969	67.9045	29.2969	68.1117	29.2969	68.1015	29.2969	68.213	29.2969	68.3843	29.2969	68.3695	29.2969	68.7506	29.2969	68.6054	29.2969	69.1887	29.2969	68.9375	29.2969	69.6794	29.2969	69.367	29.2969	70.1985	29.2969	69.8755	29.2969	70.7193	29.2969	70.4277	29.2969	71.2151	29.2969	70.9801	29.2969	71.6606	29.2969	71.4899	29.2969	72.033	29.2969	71.9211	29.2969	72.3123	29.2969	72.2478	29.2969	72.4826	29.2969	72.4538	29.2969	72.5319
30.0293	67.9615	30.0293	67.8842	30.0293	68.0358	30.0293	67.8157	30.0293	68.0994	30.0293	67.7719	30.0293	68.1503	30.0293	67.7711	30.0293	68.1918	30.0293	67.8325	30.0293	68.2344	30.0293	67.9725	30.0293	68.2957	30.0293	68.2016	30.0293	68.4001	30.0293	68.5212	30.0293	68.5745	30.0293	68.9222	30.0293	68.8413	30.0293	69.3863	30.0293	69.2089	30.0293	69.8883	30.0293	69.665	30.0293	70.3999	30.0293	70.1777	30.0293	70.8921	30.0293	70.7034	30.0293	71.3377	30.0293	71.1966	30.0293	71.712	30.0293	71.6184	30.0293	71.994	30.0293	71.94	30.0293	72.167	30.0293	72.143	30.0293	72.2188
31.4941	68.9515	31.4941	68.8658	31.4941	69.0331	31.4941	68.7868	31.4941	69.1036	31.4941	68.7291	31.4941	69.1604	31.4941	68.7095	31.4941	69.206	31.4941	68.7459	31.4941	69.2489	31.4941	68.8545	31.4941	69.3038	31.4941	69.0464	31.4941	69.3914	31.4941	69.325	31.4941	69.536	31.4941	69.6838	31.4941	69.7591	31.4941	70.1073	31.4941	70.0717	31.4941	70.5724	31.4941	70.4675	31.4941	71.0522	31.4941	70.9212	31.4941	71.5183	31.4941	71.3947	31.4941	71.9432	31.4941	71.8458	31.4941	72.3023	31.4941	72.236	31.4941	72.5743	31.4941	72.5357	31.4941	72.7423	31.4941	72.7251	31.4941	72.7945
32.2266	69.6889	32.2266	69.6004	32.2266	69.7725	32.2266	69.5166	32.2266	69.8447	32.2266	69.4504	32.2266	69.9031	32.2266	69.4171	32.2266	69.9495	32.2266	69.433	32.2266	69.9908	32.2266	69.5133	32.2266	70.0393	32.2266	69.6696	32.2266	70.1129	32.2266	69.9068	32.2266	70.2328	32.2266	70.2214	32.2266	70.4191	32.2266	70.6007	32.2266	70.6841	32.2266	71.0246	32.2266	71.0254	32.2266	71.4681	32.2266	71.4237	32.2266	71.9038	32.2266	71.8464	32.2266	72.3049	32.2266	72.2547	32.2266	72.6465	32.2266	72.6116	32.2266	72.9071	32.2266	72.8873	32.2266	73.0698	32.2266	73.0614	32.2266	73.123
33.6914	70.8776	33.6914	70.7843	33.6914	70.9636	33.6914	70.6917	33.6914	71.0367	33.6914	70.6105	33.6914	71.0943	33.6914	70.5537	33.6914	71.1375	33.6914	70.5351	33.6914	71.171	33.6914	70.5689	33.6914	71.2041	33.6914	70.6668	33.6914	71.2508	33.6914	70.8359	33.6914	71.3287	33.6914	71.0765	33.6914	71.4559	33.6914	71.3811	33.6914	71.6462	33.6914	71.7342	33.6914	71.9023	33.6914	72.1145	33.6914	72.2131	33.6914	72.4972	33.6914	72.5538	33.6914	72.8564	33.6914	72.8914	33.6914	73.1675	33.6914	73.192	33.6914	73.4088	33.6914	73.4261	33.6914	73.5633	33.6914	73.5727	33.6914	73.6195
34.4238	71.2901	34.4238	71.1898	34.4238	71.3812	34.4238	71.0882	34.4238	71.4581	34.4238	70.9951	34.4238	71.5182	34.4238	70.9224	34.4238	71.562	34.4238	70.8835	34.4238	71.5931	34.4238	70.8919	34.4238	71.6197	34.4238	70.9597	34.4238	71.6539	34.4238	71.0948	34.4238	71.7115	34.4238	71.2995	34.4238	71.8098	34.4238	71.5681	34.4238	71.9625	34.4238	71.8875	34.4238	72.175	34.4238	72.238	34.4238	72.4397	34.4238	72.5958	34.4238	72.7361	34.4238	72.9357	34.4238	73.0345	34.4238	73.2332	34.4238	73.303	34.4238	73.4667	34.4238	73.5127	34.4238	73.619	34.4238	73.6423	34.4238	73.679
35.8887	71.9048	35.8887	71.8022	35.8887	71.9974	35.8887	71.6965	35.8887	72.0751	35.8887	71.5969	35.8887	72.1352	35.8887	71.5142	35.8887	72.1776	35.8887	71.4607	35.8887	72.2053	35.8887	71.449	35.8887	72.2249	35.8887	71.4908	35.8887	72.2468	35.8887	71.5947	35.8887	72.2853	35.8887	71.7639	35.8887	72.3561	35.8887	71.9951	35.8887	72.4732	35.8887	72.2774	35.8887	72.6439	35.8887	72.5934	35.8887	72.864	35.8887	72.921	35.8887	73.117	35.8887	73.2361	35.8887	73.3768	35.8887	73.5147	35.8887	73.6137	35.8887	73.7357	35.8887	73.7999	35.8887	73.882	35.8887	73.9139	35.8887	73.9427
37.3535	72.618	37.3535	72.5174	37.3535	72.7093	37.3535	72.414	37.3535	72.7869	37.3535	72.3159	37.3535	72.8482	37.3535	72.2327	37.3535	72.8929	37.3535	72.1755	37.3535	72.9231	37.3535	72.1556	37.3535	72.9445	37.3535	72.1837	37.3535	72.9659	37.3535	72.2681	37.3535	72.9994	37.3535	72.4126	37.3535	73.0591	37.3535	72.6152	37.3535	73.1577	37.3535	72.8671	37.3535	73.3023	37.3535	73.1532	37.3535	73.4907	37.3535	73.4536	37.3535	73.7093	37.3535	73.7457	37.3535	73.9358	37.3535	74.007	37.3535	74.1431	37.3535	74.2168	37.3535	74.3056	37.3535	74.3587	37.3535	74.4028	37.3535	74.4219
38.8184	73.3919	38.8184	73.2943	38.8184	73.4823	38.8184	73.1951	38.8184	73.5613	38.8184	73.1015	38.8184	73.6265	38.8184	73.0221	38.8184	73.6775	38.8184	72.9665	38.8184	73.7158	38.8184	72.9447	38.8184	73.7459	38.8184	72.9662	38.8184	73.7751	38.8184	73.0386	38.8184	73.8131	38.8184	73.1656	38.8184	73.8716	38.8184	73.3463	38.8184	73.9613	38.8184	73.5733	38.8184	74.0883	38.8184	73.8337	38.8184	74.2513	38.8184	74.1098	38.8184	74.4395	38.8184	74.3811	38.8184	74.6338	38.8184	74.6264	38.8184	74.8109	38.8184	74.8265	38.8184	74.9478	38.8184	74.9654	38.8184	75.0258	38.8184	75.033
39.5508	73.8215	39.5508	73.7276	39.5508	73.9091	39.5508	73.6325	39.5508	73.9864	39.5508	73.5431	39.5508	74.0512	39.5508	73.467	39.5508	74.1027	39.5508	73.4131	39.5508	74.1423	39.5508	73.3906	39.5508	74.1738	39.5508	73.4082	39.5508	74.2036	39.5508	73.4731	39.5508	74.2406	39.5508	73.589	39.5508	74.2952	39.5508	73.7552	39.5508	74.3773	39.5508	73.9657	39.5508	74.4929	39.5508	74.2087	39.5508	74.6411	39.5508	74.4679	39.5508	74.8126	39.5508	74.7241	39.5508	74.9901	39.5508	74.9572	39.5508	75.1521	39.5508	75.1485	39.5508	75.2769	39.5508	75.2827	39.5508	75.3467	39.5508	75.3499
41.0156	74.7356	41.0156	74.6454	41.0156	74.8215	41.0156	74.5553	41.0156	74.8996	41.0156	74.471	41.0156	74.9679	41.0156	74.399	41.0156	75.0255	41.0156	74.3467	41.0156	75.0733	41.0156	74.322	41.0156	75.114	41.0156	74.3324	41.0156	75.1524	41.0156	74.3842	41.0156	75.1951	41.0156	74.4812	41.0156	75.2503	41.0156	74.6238	41.0156	75.3256	41.0156	74.8074	41.0156	75.4258	41.0156	75.0228	41.0156	75.5505	41.0156	75.2561	41.0156	75.6923	41.0156	75.4905	41.0156	75.837	41.0156	75.7075	41.0156	75.9668	41.0156	75.89	41.0156	76.0629	41.0156	76.0233	41.0156	76.11	41.0156	76.0979
42.4805	75.4701	42.4805	75.3784	42.4805	75.5591	42.4805	75.2883	42.4805	75.6424	42.4805	75.2045	42.4805	75.7177	42.4805	75.133	42.4805	75.7838	42.4805	75.08	42.4805	75.8408	42.4805	75.0523	42.4805	75.8902	42.4805	75.0567	42.4805	75.9353	42.4805	75.0989	42.4805	75.9812	42.4805	75.1825	42.4805	76.0341	42.4805	75.3082	42.4805	76.1003	42.4805	75.4728	42.4805	76.1842	42.4805	75.6683	42.4805	76.286	42.4805	75.8828	42.4805	76.4004	42.4805	76.1009	42.4805	76.5161	42.4805	76.3059	42.4805	76.6181	42.4805	76.4815	42.4805	76.6902	42.4805	76.614	42.4805	76.7186	42.4805	76.6942
43.9453	76.3458	43.9453	76.2599	43.9453	76.4304	43.9453	76.1761	43.9453	76.5108	43.9453	76.0988	43.9453	76.5851	43.9453	76.0326	43.9453	76.6518	43.9453	75.983	43.9453	76.7107	43.9453	75.9558	43.9453	76.7627	43.9453	75.9566	43.9453	76.8101	43.9453	75.9905	43.9453	76.8566	43.9453	76.0612	43.9453	76.9072	43.9453	76.1695	43.9453	76.9669	43.9453	76.3134	43.9453	77.0395	43.9453	76.4864	43.9453	77.1253	43.9453	76.6784	43.9453	77.2201	43.9453	76.8761	43.9453	77.3147	43.9453	77.0643	43.9453	77.3963	43.9453	77.2281	43.9453	77.451	43.9453	77.3548	43.9453	77.4668	43.9453	77.4355
45.4102	76.8848	45.4102	76.8004	45.4102	76.9684	45.4102	76.7183	45.4102	77.0487	45.4102	76.6422	45.4102	77.1235	45.4102	76.5764	45.4102	77.1915	45.4102	76.5255	45.4102	77.252	45.4102	76.4947	45.4102	77.3053	45.4102	76.489	45.4102	77.3528	45.4102	76.5132	45.4102	77.3972	45.4102	76.5707	45.4102	77.4425	45.4102	76.6629	45.4102	77.4927	45.4102	76.7882	45.4102	77.5512	45.4102	76.9416	45.4102	77.6189	45.4102	77.1143	45.4102	77.6926	45.4102	77.2944	45.4102	77.7651	45.4102	77.4683	45.4102	77.8258	45.4102	77.6223	45.4102	77.8627	45.4102	77.7445	45.4102	77.8654	45.4102	77.8266
47.6074	77.7653	47.6074	77.6858	47.6074	77.8459	47.6074	77.6099	47.6074	77.9251	47.6074	77.5406	47.6074	78.0012	47.6074	77.481	47.6074	78.0723	47.6074	77.435	47.6074	78.1375	47.6074	77.4065	47.6074	78.1961	47.6074	77.3995	47.6074	78.2484	47.6074	77.4179	47.6074	78.296	47.6074	77.4645	47.6074	78.341	47.6074	77.541	47.6074	78.3865	47.6074	77.6466	47.6074	78.4347	47.6074	77.7776	47.6074	78.4866	47.6074	77.9273	47.6074	78.54	47.6074	78.0861	47.6074	78.5898	47.6074	78.2423	47.6074	78.6278	47.6074	78.384	47.6074	78.6447	47.6074	78.5006	47.6074	78.6321	47.6074	78.5845
49.0723	78.3661	49.0723	78.2889	49.0723	78.4454	49.0723	78.2162	49.0723	78.5249	49.0723	78.1503	49.0723	78.6026	49.0723	78.0941	49.0723	78.6769	49.0723	78.0507	49.0723	78.7464	49.0723	78.0233	49.0723	78.8101	49.0723	78.0156	49.0723	78.8676	49.0723	78.0309	49.0723	78.9196	49.0723	78.072	49.0723	78.9673	49.0723	78.1405	49.0723	79.0128	49.0723	78.2361	49.0723	79.0576	49.0723	78.3561	49.0723	79.1025	49.0723	78.4946	49.0723	79.1457	49.0723	78.6433	49.0723	79.1828	49.0723	78.7918	49.0723	79.2072	49.0723	78.9291	49.0723	79.2112	49.0723	79.0452	49.0723	79.1878	49.0723	79.1326
50.5371	78.8819	50.5371	78.8054	50.5371	78.9613	50.5371	78.734	50.5371	79.0419	50.5371	78.6697	50.5371	79.1218	50.5371	78.6148	50.5371	79.1991	50.5371	78.5719	50.5371	79.2722	50.5371	78.544	50.5371	79.3397	50.5371	78.534	50.5371	79.4005	50.5371	78.5451	50.5371	79.4546	50.5371	78.5797	50.5371	79.5024	50.5371	78.6396	50.5371	79.5452	50.5371	78.7249	50.5371	79.5841	50.5371	78.8334	50.5371	79.6197	50.5371	78.9605	50.5371	79.6507	50.5371	79.0988	50.5371	79.6738	50.5371	79.2393	50.5371	79.6838	50.5371	79.3717	50.5371	79.6744	50.5371	79.4868	50.5371	79.6401	50.5371	79.5776
52.7344	79.6844	52.7344	79.6109	52.7344	79.7623	52.7344	79.5434	52.7344	79.8429	52.7344	79.4836	52.7344	79.9245	52.7344	79.4332	52.7344	80.005	52.7344	79.394	52.7344	80.0823	52.7344	79.3681	52.7344	80.1546	52.7344	79.358	52.7344	80.22	52.7344	79.3659	52.7344	80.2773	52.7344	79.3941	52.7344	80.3262	52.7344	79.4443	52.7344	80.3668	52.7344	79.517	52.7344	80.3996	52.7344	79.6108	52.7344	80.4251	52.7344	79.7224	52.7344	80.4425	52.7344	79.846	52.7344	80.4497	52.7344	79.9742	52.7344	80.4433	52.7344	80.0982	52.7344	80.4188	52.7344	80.2099	52.7344	80.3726	52.7344	80.3027
54.1992	80.1511	54.1992	80.0799	54.1992	80.2277	54.1992	80.0152	54.1992	80.3079	54.1992	79.9584	54.1992	80.3901	54.1992	79.9108	54.1992	80.4721	54.1992	79.8739	54.1992	80.5517	54.1992	79.8494	54.1992	80.6267	54.1992	79.8392	54.1992	80.6948	54.1992	79.8453	54.1992	80.7542	54.1992	79.8697	54.1992	80.804	54.1992	79.9141	54.1992	80.8437	54.1992	79.9792	54.1992	80.8735	54.1992	80.0643	54.1992	80.8935	54.1992	80.1667	54.1992	80.9034	54.1992	80.2816	54.1992	80.9017	54.1992	80.4025	54.1992	80.8859	54.1992	80.5217	54.1992	80.8527	54.1992	80.6314	54.1992	80.7996	54.1992	80.7254
56.3965	80.7915	56.3965	80.7216	56.3965	80.8679	56.3965	80.6592	56.3965	80.9493	56.3965	80.6053	56.3965	81.034	56.3965	80.5607	56.3965	81.1198	56.3965	80.5264	56.3965	81.2042	56.3965	80.5035	56.3965	81.2844	56.3965	80.4936	56.3965	81.3576	56.3965	80.4981	56.3965	81.4215	56.3965	80.519	56.3965	81.4741	56.3965	80.5577	56.3965	81.5143	56.3965	80.6152	56.3965	81.5416	56.3965	80.6914	56.3965	81.556	56.3965	80.7845	56.3965	81.5572	56.3965	80.8908	56.3965	81.5445	56.3965	81.0049	56.3965	81.5165	56.3965	81.12	56.3965	81.4716	56.3965	81.2294	56.3965	81.4083	56.3965	81.3269
