"SPL Horizontal"
"On-Axis"		"10°"		"-10°"		"20°"		"-20°"		"30°"		"-30°"		"40°"		"-40°"		"50°"		"-50°"		"60°"		"-60°"		"70°"		"-70°"		"80°"		"-80°"		"90°"		"-90°"		"100°"		"-100°"		"110°"		"-110°"		"120°"		"-120°"		"130°"		"-130°"		"140°"		"-140°"		"150°"		"-150°"		"160°"		"-160°"		"170°"		"-170°"		"180°"
"Frequency / Hz"	"Sound Pressure Level / dB (re 20 µPa/V)  [2.83  V @ 1. m]"	"Frequency / Hz"	"Sound Pressure Level / dB (re 20 µPa/V)  [2.83  V @ 1. m]"	"Frequency / Hz"	"Sound Pressure Level / dB (re 20 µPa/V)  [2.83  V @ 1. m]"	"Frequency / Hz"	"Sound Pressure Level / dB (re 20 µPa/V)  [2.83  V @ 1. m]"	"Frequency / Hz"	"Sound Pressure Level / dB (re 20 µPa/V)  [2.83  V @ 1. m]"	"Frequency / Hz"	"Sound Pressure Level / dB (re 20 µPa/V)  [2.83  V @ 1. m]"	"Frequency / Hz"	"Sound Pressure Level / dB (re 20 µPa/V)  [2.83  V @ 1. m]"	"Frequency / Hz"	"Sound Pressure Level / dB (re 20 µPa/V)  [2.83  V @ 1. m]"	"Frequency / Hz"	"Sound Pressure Level / dB (re 20 µPa/V)  [2.83  V @ 1. m]"	"Frequency / Hz"	"Sound Pressure Level / dB (re 20 µPa/V)  [2.83  V @ 1. m]"	"Frequency / Hz"	"Sound Pressure Level / dB (re 20 µPa/V)  [2.83  V @ 1. m]"	"Frequency / Hz"	"Sound Pressure Level / dB (re 20 µPa/V)  [2.83  V @ 1. m]"	"Frequency / Hz"	"Sound Pressure Level / dB (re 20 µPa/V)  [2.83  V @ 1. m]"	"Frequency / Hz"	"Sound Pressure Level / dB (re 20 µPa/V)  [2.83  V @ 1. m]"	"Frequency / Hz"	"Sound Pressure Level / dB (re 20 µPa/V)  [2.83  V @ 1. m]"	"Frequency / Hz"	"Sound Pressure Level / dB (re 20 µPa/V)  [2.83  V @ 1. m]"	"Frequency / Hz"	"Sound Pressure Level / dB (re 20 µPa/V)  [2.83  V @ 1. m]"	"Frequency / Hz"	"Sound Pressure Level / dB (re 20 µPa/V)  [2.83  V @ 1. m]"	"Frequency / Hz"	"Sound Pressure Level / dB (re 20 µPa/V)  [2.83  V @ 1. m]"	"Frequency / Hz"	"Sound Pressure Level / dB (re 20 µPa/V)  [2.83  V @ 1. m]"	"Frequency / Hz"	"Sound Pressure Level / dB (re 20 µPa/V)  [2.83  V @ 1. m]"	"Frequency / Hz"	"Sound Pressure Level / dB (re 20 µPa/V)  [2.83  V @ 1. m]"	"Frequency / Hz"	"Sound Pressure Level / dB (re 20 µPa/V)  [2.83  V @ 1. m]"	"Frequency / Hz"	"Sound Pressure Level / dB (re 20 µPa/V)  [2.83  V @ 1. m]"	"Frequency / Hz"	"Sound Pressure Level / dB (re 20 µPa/V)  [2.83  V @ 1. m]"	"Frequency / Hz"	"Sound Pressure Level / dB (re 20 µPa/V)  [2.83  V @ 1. m]"	"Frequency / Hz"	"Sound Pressure Level / dB (re 20 µPa/V)  [2.83  V @ 1. m]"	"Frequency / Hz"	"Sound Pressure Level / dB (re 20 µPa/V)  [2.83  V @ 1. m]"	"Frequency / Hz"	"Sound Pressure Level / dB (re 20 µPa/V)  [2.83  V @ 1. m]"	"Frequency / Hz"	"Sound Pressure Level / dB (re 20 µPa/V)  [2.83  V @ 1. m]"	"Frequency / Hz"	"Sound Pressure Level / dB (re 20 µPa/V)  [2.83  V @ 1. m]"	"Frequency / Hz"	"Sound Pressure Level / dB (re 20 µPa/V)  [2.83  V @ 1. m]"	"Frequency / Hz"	"Sound Pressure Level / dB (re 20 µPa/V)  [2.83  V @ 1. m]"	"Frequency / Hz"	"Sound Pressure Level / dB (re 20 µPa/V)  [2.83  V @ 1. m]"	"Frequency / Hz"	"Sound Pressure Level / dB (re 20 µPa/V)  [2.83  V @ 1. m]"	"Frequency / Hz"	"Sound Pressure Level / dB (re 20 µPa/V)  [2.83  V @ 1. m]"
20.5078	62.2501	20.5078	62.2126	20.5078	62.2461	20.5078	62.1387	20.5078	62.2112	20.5078	62.0521	20.5078	62.1748	20.5078	62.0061	20.5078	62.1938	20.5078	62.0949	20.5078	62.3599	20.5078	62.4498	20.5078	62.7912	20.5078	63.1893	20.5078	63.5849	20.5078	64.3337	20.5078	64.7473	20.5078	65.774	20.5078	66.1738	20.5078	67.3395	20.5078	67.7085	20.5078	68.8794	20.5078	69.2117	20.5078	70.2927	20.5078	70.5867	20.5078	71.5204	20.5078	71.7744	20.5078	72.5319	20.5078	72.7426	20.5078	73.3157	20.5078	73.4789	20.5078	73.873	20.5078	73.9845	20.5078	74.2126	20.5078	74.2692	20.5078	74.3435
21.9727	65.8601	21.9727	65.7848	21.9727	65.9122	21.9727	65.6913	21.9727	65.9451	21.9727	65.5976	21.9727	65.9738	21.9727	65.541	21.9727	66.0272	21.9727	65.5866	21.9727	66.1549	21.9727	65.8264	21.9727	66.4287	21.9727	66.3537	21.9727	66.9299	21.9727	67.2108	21.9727	67.7108	21.9727	68.3501	21.9727	68.7542	21.9727	69.654	21.9727	69.9711	21.9727	70.9922	21.9727	71.2423	21.9727	72.2598	21.9727	72.4605	21.9727	73.3862	21.9727	73.548	21.9727	74.3289	21.9727	74.4562	21.9727	75.066	21.9727	75.1603	21.9727	75.5911	21.9727	75.6532	21.9727	75.9076	21.9727	75.9384	21.9727	76.0223
23.4375	67.6343	23.4375	67.605	23.4375	67.6468	23.4375	67.5664	23.4375	67.6452	23.4375	67.5387	23.4375	67.6444	23.4375	67.559	23.4375	67.6757	23.4375	67.6851	23.4375	67.7925	23.4375	67.9927	23.4375	68.0704	23.4375	68.5538	23.4375	68.5907	23.4375	69.3982	23.4375	69.3999	23.4375	70.4868	23.4375	70.4724	23.4375	71.724	23.4375	71.7142	23.4375	72.9982	23.4375	73.006	23.4375	74.2137	23.4375	74.2422	23.4375	75.3014	23.4375	75.3459	23.4375	76.2167	23.4375	76.2683	23.4375	76.9352	23.4375	76.9842	23.4375	77.4483	23.4375	77.4859	23.4375	77.7571	23.4375	77.7774	23.4375	77.8664
24.9023	71.1149	24.9023	71.0956	24.9023	71.1413	24.9023	71.0895	24.9023	71.1765	24.9023	71.1111	24.9023	71.2302	24.9023	71.1855	24.9023	71.3222	24.9023	71.3494	24.9023	71.4844	24.9023	71.6486	24.9023	71.7605	24.9023	72.1272	24.9023	72.1989	24.9023	72.8086	24.9023	72.8339	24.9023	73.6782	24.9023	73.6647	24.9023	74.6821	24.9023	74.6456	24.9023	75.7431	24.9023	75.7002	24.9023	76.7823	24.9023	76.7445	24.9023	77.7328	24.9023	77.7056	24.9023	78.5455	24.9023	78.5293	24.9023	79.1894	24.9023	79.1816	24.9023	79.65	24.9023	79.6473	24.9023	79.9246	24.9023	79.9241	24.9023	80.0156
26.3672	74.4267	26.3672	74.415	26.3672	74.4548	26.3672	74.4233	26.3672	74.5014	26.3672	74.462	26.3672	74.5745	26.3672	74.5488	26.3672	74.6892	26.3672	74.7098	26.3672	74.8681	26.3672	74.9777	26.3672	75.1411	26.3672	75.385	26.3672	75.5406	26.3672	75.9529	26.3672	76.091	26.3672	76.6777	26.3672	76.7945	26.3672	77.526	26.3672	77.623	26.3672	78.4412	26.3672	78.5225	26.3672	79.3575	26.3672	79.4265	26.3672	80.2126	26.3672	80.2708	26.3672	80.9563	26.3672	81.0034	26.3672	81.5538	26.3672	81.589	26.3672	81.9863	26.3672	82.0092	26.3672	82.2474	26.3672	82.2586	26.3672	82.3377
27.832	77.3906	27.832	77.3805	27.832	77.4224	27.832	77.3966	27.832	77.4762	27.832	77.4473	27.832	77.5562	27.832	77.5464	27.832	77.6724	27.832	77.7123	27.832	77.8408	27.832	77.9676	27.832	78.0838	27.832	78.3346	27.832	78.4276	27.832	78.8287	27.832	78.8943	27.832	79.4498	27.832	79.4918	27.832	80.177	27.832	80.2043	27.832	80.9694	27.832	80.9919	27.832	81.7744	27.832	81.7986	27.832	82.5374	27.832	82.565	27.832	83.2103	27.832	83.239	27.832	83.7572	27.832	83.7829	27.832	84.1565	27.832	84.1755	27.832	84.3992	27.832	84.4091	27.832	84.4834
29.2969	80.0391	29.2969	80.0364	29.2969	80.069	29.2969	80.0638	29.2969	80.1262	29.2969	80.1274	29.2969	80.2137	29.2969	80.2365	29.2969	80.338	29.2969	80.4041	29.2969	80.5098	29.2969	80.6456	29.2969	80.7438	29.2969	80.9771	29.2969	81.0582	29.2969	81.4104	29.2969	81.4695	29.2969	81.9476	29.2969	81.9858	29.2969	82.5755	29.2969	82.5992	29.2969	83.2646	29.2969	83.2819	29.2969	83.9731	29.2969	83.9902	29.2969	84.6538	29.2969	84.6727	29.2969	85.2616	29.2969	85.2809	29.2969	85.7603	29.2969	85.7773	29.2969	86.1267	29.2969	86.1389	29.2969	86.3496	29.2969	86.3559	29.2969	86.4261
30.7617	81.9981	30.7617	82.014	30.7617	82.0118	30.7617	82.0613	30.7617	82.0557	30.7617	82.1438	30.7617	82.1323	30.7617	82.2673	30.7617	82.247	30.7617	82.4397	30.7617	82.4083	30.7617	82.6705	30.7617	82.6276	30.7617	82.9703	30.7617	82.9183	30.7617	83.3478	30.7617	83.2923	30.7617	83.8064	30.7617	83.7551	30.7617	84.3394	30.7617	84.3007	30.7617	84.9279	30.7617	84.9073	30.7617	85.5404	30.7617	85.5395	30.7617	86.1374	30.7617	86.1527	30.7617	86.6782	30.7617	86.7028	30.7617	87.1279	30.7617	87.154	30.7617	87.4622	30.7617	87.4832	30.7617	87.6685	30.7617	87.68	30.7617	87.7416
32.2266	83.2097	32.2266	83.222	32.2266	83.2293	32.2266	83.2672	32.2266	83.281	32.2266	83.3474	32.2266	83.3666	32.2266	83.4663	32.2266	83.4895	32.2266	83.6292	32.2266	83.6549	32.2266	83.8429	32.2266	83.8697	32.2266	84.1151	32.2266	84.1426	32.2266	84.4529	32.2266	84.4819	32.2266	84.8596	32.2266	84.8921	32.2266	85.3313	32.2266	85.3698	32.2266	85.8537	32.2266	85.9	32.2266	86.4015	32.2266	86.4551	32.2266	86.9406	32.2266	86.9982	32.2266	87.434	32.2266	87.4898	32.2266	87.8483	32.2266	87.8961	32.2266	88.1594	32.2266	88.1939	32.2266	88.3535	32.2266	88.3715	32.2266	88.4248
33.6914	83.7067	33.6914	83.7179	33.6914	83.7283	33.6914	83.7629	33.6914	83.7828	33.6914	83.8436	33.6914	83.871	33.6914	83.9629	33.6914	83.9951	33.6914	84.1244	33.6914	84.1587	33.6914	84.333	33.6914	84.3665	33.6914	84.5936	33.6914	84.6244	33.6914	84.9105	33.6914	84.938	33.6914	85.2852	33.6914	85.3107	33.6914	85.7141	33.6914	85.7397	33.6914	86.1855	33.6914	86.2138	33.6914	86.6787	33.6914	86.7107	33.6914	87.1648	33.6914	87.1995	33.6914	87.6113	33.6914	87.6454	33.6914	87.9875	33.6914	88.0171	33.6914	88.2706	33.6914	88.292	33.6914	88.4467	33.6914	88.4579	33.6914	88.5097
35.1562	83.9718	35.1562	83.9832	35.1562	83.9931	35.1562	84.028	35.1562	84.0472	35.1562	84.1071	35.1562	84.1346	35.1562	84.2221	35.1562	84.2561	35.1562	84.3751	35.1562	84.4135	35.1562	84.5688	35.1562	84.6092	35.1562	84.806	35.1562	84.8464	35.1562	85.0895	35.1562	85.1286	35.1562	85.4203	35.1562	85.4578	35.1562	85.7959	35.1562	85.8326	35.1562	86.2079	35.1562	86.245	35.1562	86.6402	35.1562	86.6782	35.1562	87.0689	35.1562	87.1068	35.1562	87.4657	35.1562	87.501	35.1562	87.8028	35.1562	87.8322	35.1562	88.058	35.1562	88.0788	35.1562	88.2175	35.1562	88.2282	35.1562	88.2748
36.6211	84.0127	36.6211	84.026	36.6211	84.0318	36.6211	84.0715	36.6211	84.0831	36.6211	84.1499	36.6211	84.1672	36.6211	84.2617	36.6211	84.2845	36.6211	84.408	36.6211	84.4361	36.6211	84.5901	36.6211	84.6231	36.6211	84.8098	36.6211	84.8469	36.6211	85.0685	36.6211	85.1089	36.6211	85.3669	36.6211	85.4101	36.6211	85.7031	36.6211	85.7489	36.6211	86.0706	36.6211	86.1189	36.6211	86.4564	36.6211	86.5065	36.6211	86.8403	36.6211	86.8904	36.6211	87.1975	36.6211	87.2443	36.6211	87.5029	36.6211	87.5422	36.6211	87.7358	36.6211	87.7641	36.6211	87.8829	36.6211	87.8976	36.6211	87.9376
38.0859	84.0256	38.0859	84.0388	38.0859	84.0437	38.0859	84.0834	38.0859	84.0932	38.0859	84.1594	38.0859	84.174	38.0859	84.2671	38.0859	84.2862	38.0859	84.4067	38.0859	84.4298	38.0859	84.5784	38.0859	84.605	38.0859	84.7829	38.0859	84.8119	38.0859	85.0206	38.0859	85.0511	38.0859	85.2914	38.0859	85.3227	38.0859	85.5936	38.0859	85.6256	38.0859	85.9216	38.0859	85.955	38.0859	86.2649	38.0859	86.3004	38.0859	86.6068	38.0859	86.6438	38.0859	86.9261	38.0859	86.9623	38.0859	87.2004	38.0859	87.2323	38.0859	87.4108	38.0859	87.4345	38.0859	87.5442	38.0859	87.5569	38.0859	87.5938
39.5508	84.1505	39.5508	84.1699	39.5508	84.1612	39.5508	84.2195	39.5508	84.202	39.5508	84.2991	39.5508	84.2727	39.5508	84.4086	39.5508	84.3731	39.5508	84.5475	39.5508	84.503	39.5508	84.7155	39.5508	84.6618	39.5508	84.912	39.5508	84.8494	39.5508	85.1365	39.5508	85.0654	39.5508	85.3878	39.5508	85.3094	39.5508	85.6636	39.5508	85.5801	39.5508	85.9588	39.5508	85.874	39.5508	86.2643	39.5508	86.1828	39.5508	86.5657	39.5508	86.4921	39.5508	86.8444	39.5508	86.7827	39.5508	87.0809	39.5508	87.0334	39.5508	87.2583	39.5508	87.2263	39.5508	87.3654	39.5508	87.3494	39.5508	87.3964
41.0156	84.2392	41.0156	84.2521	41.0156	84.2559	41.0156	84.2941	41.0156	84.3024	41.0156	84.3647	41.0156	84.3784	41.0156	84.4627	41.0156	84.4833	41.0156	84.587	41.0156	84.616	41.0156	84.7366	41.0156	84.7745	41.0156	84.9108	41.0156	84.9563	41.0156	85.1088	41.0156	85.1589	41.0156	85.3298	41.0156	85.3804	41.0156	85.5717	41.0156	85.619	41.0156	85.8306	41.0156	85.8721	41.0156	86.0993	41.0156	86.1344	41.0156	86.3664	41.0156	86.3955	41.0156	86.6163	41.0156	86.6399	41.0156	86.832	41.0156	86.8499	41.0156	86.9978	41.0156	87.0099	41.0156	87.1026	41.0156	87.1086	41.0156	87.1401
42.4805	84.1169	42.4805	84.1256	42.4805	84.1355	42.4805	84.1615	42.4805	84.1812	42.4805	84.2244	42.4805	84.2538	42.4805	84.314	42.4805	84.3528	42.4805	84.4298	42.4805	84.477	42.4805	84.5713	42.4805	84.6248	42.4805	84.7372	42.4805	84.7941	42.4805	84.9261	42.4805	84.9825	42.4805	85.1362	42.4805	85.1883	42.4805	85.365	42.4805	85.4097	42.4805	85.609	42.4805	85.6444	42.4805	85.8622	42.4805	85.8879	42.4805	86.1142	42.4805	86.1312	42.4805	86.3507	42.4805	86.3607	42.4805	86.5549	42.4805	86.5599	42.4805	86.7115	42.4805	86.7134	42.4805	86.8095	42.4805	86.81	42.4805	86.8428
43.9453	84.3135	43.9453	84.3227	43.9453	84.3298	43.9453	84.3572	43.9453	84.3716	43.9453	84.4168	43.9453	84.4387	43.9453	84.5012	43.9453	84.5304	43.9453	84.6097	43.9453	84.6456	43.9453	84.7413	43.9453	84.7826	43.9453	84.8945	43.9453	84.9387	43.9453	85.0674	43.9453	85.1113	43.9453	85.2577	43.9453	85.2978	43.9453	85.4632	43.9453	85.4962	43.9453	85.6808	43.9453	85.7046	43.9453	85.9054	43.9453	85.9193	43.9453	86.1283	43.9453	86.1336	43.9453	86.3372	43.9453	86.3364	43.9453	86.5176	43.9453	86.5136	43.9453	86.6558	43.9453	86.6514	43.9453	86.7419	43.9453	86.7391	43.9453	86.7701
45.4102	84.4828	45.4102	84.4946	45.4102	84.4961	45.4102	84.5314	45.4102	84.5345	45.4102	84.593	45.4102	84.5979	45.4102	84.6787	45.4102	84.6856	45.4102	84.7877	45.4102	84.7963	45.4102	84.9184	45.4102	84.9278	45.4102	85.0685	45.4102	85.0772	45.4102	85.2355	45.4102	85.2411	45.4102	85.4163	45.4102	85.4164	45.4102	85.6081	45.4102	85.6006	45.4102	85.8075	45.4102	85.7916	45.4102	86.0101	45.4102	85.9868	45.4102	86.2085	45.4102	86.1806	45.4102	86.3927	45.4102	86.3642	45.4102	86.5506	45.4102	86.5255	45.4102	86.6708	45.4102	86.6522	45.4102	86.7442	45.4102	86.7344	45.4102	86.7659
46.875	84.7611	46.875	84.774	46.875	84.7711	46.875	84.8095	46.875	84.8041	46.875	84.8674	46.875	84.8602	46.875	84.9469	46.875	84.9387	46.875	85.0471	46.875	85.0388	46.875	85.1663	46.875	85.1584	46.875	85.3023	46.875	85.2946	46.875	85.4526	46.875	85.444	46.875	85.614	46.875	85.603	46.875	85.7837	46.875	85.7686	46.875	85.9587	46.875	85.9388	46.875	86.135	46.875	86.111	46.875	86.3071	46.875	86.2812	46.875	86.4671	46.875	86.4422	46.875	86.6049	46.875	86.584	46.875	86.7106	46.875	86.6956	46.875	86.7757	46.875	86.768	46.875	86.7954
48.3398	85.0033	48.3398	85.0151	48.3398	85.0122	48.3398	85.0476	48.3398	85.042	48.3398	85.1004	48.3398	85.0929	48.3398	85.1731	48.3398	85.1645	48.3398	85.2649	48.3398	85.2558	48.3398	85.3745	48.3398	85.365	48.3398	85.4997	48.3398	85.4892	48.3398	85.6379	48.3398	85.625	48.3398	85.7857	48.3398	85.7687	48.3398	85.9398	48.3398	85.9171	48.3398	86.097	48.3398	86.0682	48.3398	86.2537	48.3398	86.22	48.3398	86.4054	48.3398	86.3695	48.3398	86.5457	48.3398	86.5112	48.3398	86.6661	48.3398	86.6369	48.3398	86.758	48.3398	86.737	48.3398	86.814	48.3398	86.803	48.3398	86.8294
51.2695	85.4766	51.2695	85.4901	51.2695	85.4802	51.2695	85.5205	51.2695	85.5013	51.2695	85.5679	51.2695	85.5405	51.2695	85.6323	51.2695	85.5979	51.2695	85.7132	51.2695	85.6734	51.2695	85.8097	51.2695	85.7657	51.2695	85.9197	51.2695	85.8721	51.2695	86.0401	51.2695	85.9889	51.2695	86.1671	51.2695	86.1115	51.2695	86.2964	51.2695	86.2356	51.2695	86.4245	51.2695	86.3581	51.2695	86.5483	51.2695	86.4774	51.2695	86.6646	51.2695	86.5925	51.2695	86.7694	51.2695	86.7014	51.2695	86.8575	51.2695	86.7995	51.2695	86.9225	51.2695	86.8803	51.2695	86.9592	51.2695	86.937	51.2695	86.9642
52.7344	85.7889	52.7344	85.8091	52.7344	85.7821	52.7344	85.8422	52.7344	85.7895	52.7344	85.8883	52.7344	85.812	52.7344	85.9473	52.7344	85.8506	52.7344	86.0193	52.7344	85.9058	52.7344	86.1035	52.7344	85.9769	52.7344	86.1984	52.7344	86.0618	52.7344	86.3013	52.7344	86.1568	52.7344	86.4083	52.7344	86.2574	52.7344	86.5155	52.7344	86.3592	52.7344	86.6191	52.7344	86.4594	52.7344	86.7163	52.7344	86.5569	52.7344	86.8046	52.7344	86.6521	52.7344	86.8815	52.7344	86.7444	52.7344	86.9433	52.7344	86.8307	52.7344	86.9856	52.7344	86.9057	52.7344	87.0042	52.7344	86.9627	52.7344	86.9966
54.1992	86.0366	54.1992	86.0639	54.1992	86.02	54.1992	86.1012	54.1992	86.0153	54.1992	86.1483	54.1992	86.024	54.1992	86.2055	54.1992	86.0478	54.1992	86.2729	54.1992	86.0876	54.1992	86.3505	54.1992	86.1435	54.1992	86.4372	54.1992	86.2139	54.1992	86.5306	54.1992	86.2956	54.1992	86.6274	54.1992	86.3844	54.1992	86.7238	54.1992	86.4761	54.1992	86.816	54.1992	86.5678	54.1992	86.901	54.1992	86.6588	54.1992	86.9763	54.1992	86.7495	54.1992	87.0393	54.1992	86.8392	54.1992	87.0869	54.1992	86.9252	54.1992	87.1157	54.1992	87.0021	54.1992	87.1222	54.1992	87.0636	54.1992	87.1047
55.6641	86.0831	55.6641	86.1066	55.6641	86.0689	55.6641	86.1389	55.6641	86.0648	55.6641	86.1802	55.6641	86.0722	55.6641	86.2309	55.6641	86.0925	55.6641	86.2916	55.6641	86.1268	55.6641	86.3622	55.6641	86.1752	55.6641	86.4417	55.6641	86.2364	55.6641	86.5276	55.6641	86.3076	55.6641	86.616	55.6641	86.3851	55.6641	86.7028	55.6641	86.4652	55.6641	86.7837	55.6641	86.5455	55.6641	86.8556	55.6641	86.6251	55.6641	86.9162	55.6641	86.704	55.6641	86.9641	55.6641	86.7813	55.6641	86.9982	55.6641	86.8544	55.6641	87.0174	55.6641	86.9188	55.6641	87.0199	55.6641	86.9699	55.6641	87.0042
58.5938	86.8334	58.5938	86.839	58.5938	86.834	58.5938	86.8514	58.5938	86.841	58.5938	86.8719	58.5938	86.8557	58.5938	86.9023	58.5938	86.8796	58.5938	86.9439	58.5938	86.9143	58.5938	86.997	58.5938	86.9606	58.5938	87.0604	58.5938	87.0177	58.5938	87.1312	58.5938	87.083	58.5938	87.2044	58.5938	87.1519	58.5938	87.2745	58.5938	87.2197	58.5938	87.3371	58.5938	87.2821	58.5938	87.3896	58.5938	87.3372	58.5938	87.4323	58.5938	87.3854	58.5938	87.467	58.5938	87.4282	58.5938	87.4951	58.5938	87.4661	58.5938	87.5166	58.5938	87.4978	58.5938	87.5294	58.5938	87.5203	58.5938	87.5311
60.0586	87.16	60.0586	87.168	60.0586	87.1564	60.0586	87.1812	60.0586	87.1577	60.0586	87.2015	60.0586	87.1653	60.0586	87.231	60.0586	87.1817	60.0586	87.2718	60.0586	87.2092	60.0586	87.3248	60.0586	87.249	60.0586	87.3895	60.0586	87.301	60.0586	87.4629	60.0586	87.3622	60.0586	87.54	60.0586	87.4281	60.0586	87.6148	60.0586	87.4929	60.0586	87.6817	60.0586	87.5521	60.0586	87.737	60.0586	87.6038	60.0586	87.7793	60.0586	87.6488	60.0586	87.8093	60.0586	87.69	60.0586	87.8283	60.0586	87.7292	60.0586	87.8369	60.0586	87.7661	60.0586	87.8348	60.0586	87.798	60.0586	87.8217
62.9883	87.5782	62.9883	87.5794	62.9883	87.5776	62.9883	87.5824	62.9883	87.5781	62.9883	87.5892	62.9883	87.5814	62.9883	87.6029	62.9883	87.5902	62.9883	87.6261	62.9883	87.6075	62.9883	87.6608	62.9883	87.6353	62.9883	87.7069	62.9883	87.674	62.9883	87.7619	62.9883	87.7211	62.9883	87.8207	62.9883	87.7719	62.9883	87.8769	62.9883	87.82	62.9883	87.9242	62.9883	87.8599	62.9883	87.9585	62.9883	87.889	62.9883	87.9794	62.9883	87.9084	62.9883	87.9892	62.9883	87.9221	62.9883	87.9915	62.9883	87.9343	62.9883	87.9889	62.9883	87.9475	62.9883	87.9828	62.9883	87.9611	62.9883	87.9734
64.4531	87.8077	64.4531	87.8059	64.4531	87.8066	64.4531	87.8023	64.4531	87.8035	64.4531	87.799	64.4531	87.8004	64.4531	87.7994	64.4531	87.8007	64.4531	87.8069	64.4531	87.8077	64.4531	87.8243	64.4531	87.8243	64.4531	87.8526	64.4531	87.8512	64.4531	87.8901	64.4531	87.8864	64.4531	87.9325	64.4531	87.925	64.4531	87.9735	64.4531	87.9605	64.4531	88.0067	64.4531	87.9869	64.4531	88.0282	64.4531	88.0014	64.4531	88.0374	64.4531	88.0052	64.4531	88.0369	64.4531	88.0031	64.4531	88.0311	64.4531	88.0003	64.4531	88.0235	64.4531	88.0003	64.4531	88.0161	64.4531	88.0036	64.4531	88.0093
67.3828	88.2301	67.3828	88.2189	67.3828	88.2335	67.3828	88.2009	67.3828	88.2299	67.3828	88.1791	67.3828	88.2219	67.3828	88.1575	67.3828	88.2133	67.3828	88.1408	67.3828	88.2084	67.3828	88.1331	67.3828	88.2106	67.3828	88.1367	67.3828	88.2214	67.3828	88.151	67.3828	88.2395	67.3828	88.1722	67.3828	88.26	67.3828	88.1938	67.3828	88.2764	67.3828	88.2092	67.3828	88.2821	67.3828	88.2139	67.3828	88.2737	67.3828	88.2076	67.3828	88.2528	67.3828	88.1935	67.3828	88.2248	67.3828	88.1771	67.3828	88.1968	67.3828	88.1634	67.3828	88.1743	67.3828	88.1551	67.3828	88.1599	67.3828	88.1537
