"SPL Horizontal"																																																																							
"On-Axis"		"10°"		"-10°"		"20°"		"-20°"		"30°"		"-30°"		"40°"		"-40°"		"50°"		"-50°"		"60°"		"-60°"		"70°"		"-70°"		"80°"		"-80°"		"90°"		"-90°"		"100°"		"-100°"		"110°"		"-110°"		"120°"		"-120°"		"130°"		"-130°"		"140°"		"-140°"		"150°"		"-150°"		"160°"		"-160°"		"170°"		"-170°"		"180°"	
"Frequency / Hz"	"Sound Pressure Level / dB (re 20 µPa/V)  [2.83  V @ 1. m]"	"Frequency / Hz"	"Sound Pressure Level / dB (re 20 µPa/V)  [2.83  V @ 1. m]"	"Frequency / Hz"	"Sound Pressure Level / dB (re 20 µPa/V)  [2.83  V @ 1. m]"	"Frequency / Hz"	"Sound Pressure Level / dB (re 20 µPa/V)  [2.83  V @ 1. m]"	"Frequency / Hz"	"Sound Pressure Level / dB (re 20 µPa/V)  [2.83  V @ 1. m]"	"Frequency / Hz"	"Sound Pressure Level / dB (re 20 µPa/V)  [2.83  V @ 1. m]"	"Frequency / Hz"	"Sound Pressure Level / dB (re 20 µPa/V)  [2.83  V @ 1. m]"	"Frequency / Hz"	"Sound Pressure Level / dB (re 20 µPa/V)  [2.83  V @ 1. m]"	"Frequency / Hz"	"Sound Pressure Level / dB (re 20 µPa/V)  [2.83  V @ 1. m]"	"Frequency / Hz"	"Sound Pressure Level / dB (re 20 µPa/V)  [2.83  V @ 1. m]"	"Frequency / Hz"	"Sound Pressure Level / dB (re 20 µPa/V)  [2.83  V @ 1. m]"	"Frequency / Hz"	"Sound Pressure Level / dB (re 20 µPa/V)  [2.83  V @ 1. m]"	"Frequency / Hz"	"Sound Pressure Level / dB (re 20 µPa/V)  [2.83  V @ 1. m]"	"Frequency / Hz"	"Sound Pressure Level / dB (re 20 µPa/V)  [2.83  V @ 1. m]"	"Frequency / Hz"	"Sound Pressure Level / dB (re 20 µPa/V)  [2.83  V @ 1. m]"	"Frequency / Hz"	"Sound Pressure Level / dB (re 20 µPa/V)  [2.83  V @ 1. m]"	"Frequency / Hz"	"Sound Pressure Level / dB (re 20 µPa/V)  [2.83  V @ 1. m]"	"Frequency / Hz"	"Sound Pressure Level / dB (re 20 µPa/V)  [2.83  V @ 1. m]"	"Frequency / Hz"	"Sound Pressure Level / dB (re 20 µPa/V)  [2.83  V @ 1. m]"	"Frequency / Hz"	"Sound Pressure Level / dB (re 20 µPa/V)  [2.83  V @ 1. m]"	"Frequency / Hz"	"Sound Pressure Level / dB (re 20 µPa/V)  [2.83  V @ 1. m]"	"Frequency / Hz"	"Sound Pressure Level / dB (re 20 µPa/V)  [2.83  V @ 1. m]"	"Frequency / Hz"	"Sound Pressure Level / dB (re 20 µPa/V)  [2.83  V @ 1. m]"	"Frequency / Hz"	"Sound Pressure Level / dB (re 20 µPa/V)  [2.83  V @ 1. m]"	"Frequency / Hz"	"Sound Pressure Level / dB (re 20 µPa/V)  [2.83  V @ 1. m]"	"Frequency / Hz"	"Sound Pressure Level / dB (re 20 µPa/V)  [2.83  V @ 1. m]"	"Frequency / Hz"	"Sound Pressure Level / dB (re 20 µPa/V)  [2.83  V @ 1. m]"	"Frequency / Hz"	"Sound Pressure Level / dB (re 20 µPa/V)  [2.83  V @ 1. m]"	"Frequency / Hz"	"Sound Pressure Level / dB (re 20 µPa/V)  [2.83  V @ 1. m]"	"Frequency / Hz"	"Sound Pressure Level / dB (re 20 µPa/V)  [2.83  V @ 1. m]"	"Frequency / Hz"	"Sound Pressure Level / dB (re 20 µPa/V)  [2.83  V @ 1. m]"	"Frequency / Hz"	"Sound Pressure Level / dB (re 20 µPa/V)  [2.83  V @ 1. m]"	"Frequency / Hz"	"Sound Pressure Level / dB (re 20 µPa/V)  [2.83  V @ 1. m]"	"Frequency / Hz"	"Sound Pressure Level / dB (re 20 µPa/V)  [2.83  V @ 1. m]"	"Frequency / Hz"	"Sound Pressure Level / dB (re 20 µPa/V)  [2.83  V @ 1. m]"	"Frequency / Hz"	"Sound Pressure Level / dB (re 20 µPa/V)  [2.83  V @ 1. m]"
20.5078	77.0239	20.5078	77.0112	20.5078	77.0367	20.5078	76.9989	20.5078	77.0491	20.5078	76.9874	20.5078	77.0609	20.5078	76.977	20.5078	77.0716	20.5078	76.968	20.5078	77.0808	20.5078	76.9607	20.5078	77.0884	20.5078	76.9553	20.5078	77.094	20.5078	76.952	20.5078	77.0974	20.5078	76.9509	20.5078	77.0986	20.5078	76.952	20.5078	77.0974	20.5078	76.9553	20.5078	77.094	20.5078	76.9607	20.5078	77.0884	20.5078	76.968	20.5078	77.0808	20.5078	76.977	20.5078	77.0716	20.5078	76.9874	20.5078	77.0609	20.5078	76.9989	20.5078	77.0491	20.5078	77.0112	20.5078	77.0367	20.5078	77.0239
21.9727	78.3829	21.9727	78.3715	21.9727	78.3943	21.9727	78.3604	21.9727	78.4054	21.9727	78.3501	21.9727	78.4159	21.9727	78.3408	21.9727	78.4253	21.9727	78.3327	21.9727	78.4336	21.9727	78.3261	21.9727	78.4403	21.9727	78.3213	21.9727	78.4452	21.9727	78.3183	21.9727	78.4482	21.9727	78.3173	21.9727	78.4492	21.9727	78.3183	21.9727	78.4482	21.9727	78.3213	21.9727	78.4452	21.9727	78.3261	21.9727	78.4403	21.9727	78.3327	21.9727	78.4336	21.9727	78.3408	21.9727	78.4253	21.9727	78.3501	21.9727	78.4159	21.9727	78.3604	21.9727	78.4054	21.9727	78.3715	21.9727	78.3943	21.9727	78.3829
23.4375	79.41	23.4375	79.3992	23.4375	79.4211	23.4375	79.3888	23.4375	79.432	23.4375	79.3792	23.4375	79.4424	23.4375	79.3707	23.4375	79.4519	23.4375	79.3634	23.4375	79.4603	23.4375	79.3576	23.4375	79.4671	23.4375	79.3533	23.4375	79.4722	23.4375	79.3507	23.4375	79.4753	23.4375	79.3498	23.4375	79.4764	23.4375	79.3507	23.4375	79.4753	23.4375	79.3533	23.4375	79.4722	23.4375	79.3576	23.4375	79.4671	23.4375	79.3634	23.4375	79.4603	23.4375	79.3707	23.4375	79.4519	23.4375	79.3792	23.4375	79.4424	23.4375	79.3888	23.4375	79.432	23.4375	79.3992	23.4375	79.4211	23.4375	79.41
24.9023	80.241	24.9023	80.2307	24.9023	80.2514	24.9023	80.2207	24.9023	80.2615	24.9023	80.2113	24.9023	80.271	24.9023	80.2028	24.9023	80.2795	24.9023	80.1955	24.9023	80.2869	24.9023	80.1895	24.9023	80.2929	24.9023	80.1851	24.9023	80.2972	24.9023	80.1824	24.9023	80.2999	24.9023	80.1815	24.9023	80.3008	24.9023	80.1824	24.9023	80.2999	24.9023	80.1851	24.9023	80.2972	24.9023	80.1895	24.9023	80.2929	24.9023	80.1955	24.9023	80.2869	24.9023	80.2028	24.9023	80.2795	24.9023	80.2113	24.9023	80.271	24.9023	80.2207	24.9023	80.2615	24.9023	80.2307	24.9023	80.2514	24.9023	80.241
26.3672	81.0697	26.3672	81.0594	26.3672	81.0801	26.3672	81.0494	26.3672	81.0903	26.3672	81.0402	26.3672	81.1	26.3672	81.0319	26.3672	81.1088	26.3672	81.0247	26.3672	81.1164	26.3672	81.0189	26.3672	81.1226	26.3672	81.0147	26.3672	81.1272	26.3672	81.0121	26.3672	81.1301	26.3672	81.0112	26.3672	81.131	26.3672	81.0121	26.3672	81.1301	26.3672	81.0147	26.3672	81.1272	26.3672	81.0189	26.3672	81.1226	26.3672	81.0247	26.3672	81.1164	26.3672	81.0319	26.3672	81.1088	26.3672	81.0402	26.3672	81.1	26.3672	81.0494	26.3672	81.0903	26.3672	81.0594	26.3672	81.0801	26.3672	81.0697
27.832	81.7607	27.832	81.7495	27.832	81.7719	27.832	81.7386	27.832	81.7826	27.832	81.7282	27.832	81.7925	27.832	81.7187	27.832	81.8014	27.832	81.7105	27.832	81.8091	27.832	81.7038	27.832	81.8153	27.832	81.6987	27.832	81.8198	27.832	81.6957	27.832	81.8225	27.832	81.6946	27.832	81.8235	27.832	81.6957	27.832	81.8225	27.832	81.6987	27.832	81.8198	27.832	81.7038	27.832	81.8153	27.832	81.7105	27.832	81.8091	27.832	81.7187	27.832	81.8014	27.832	81.7282	27.832	81.7925	27.832	81.7386	27.832	81.7826	27.832	81.7495	27.832	81.7719	27.832	81.7607
29.2969	82.3941	29.2969	82.3847	29.2969	82.4034	29.2969	82.3755	29.2969	82.4124	29.2969	82.3668	29.2969	82.4208	29.2969	82.3588	29.2969	82.4283	29.2969	82.3519	29.2969	82.4348	29.2969	82.3462	29.2969	82.4401	29.2969	82.342	29.2969	82.4439	29.2969	82.3394	29.2969	82.4463	29.2969	82.3386	29.2969	82.4471	29.2969	82.3394	29.2969	82.4463	29.2969	82.342	29.2969	82.4439	29.2969	82.3462	29.2969	82.4401	29.2969	82.3519	29.2969	82.4348	29.2969	82.3588	29.2969	82.4283	29.2969	82.3668	29.2969	82.4208	29.2969	82.3755	29.2969	82.4124	29.2969	82.3847	29.2969	82.4034	29.2969	82.3941
30.7617	83.0033	30.7617	82.9938	30.7617	83.0122	30.7617	82.9841	30.7617	83.0205	30.7617	82.9745	30.7617	83.0278	30.7617	82.9655	30.7617	83.0341	30.7617	82.9574	30.7617	83.0393	30.7617	82.9507	30.7617	83.0434	30.7617	82.9455	30.7617	83.0463	30.7617	82.9424	30.7617	83.048	30.7617	82.9413	30.7617	83.0486	30.7617	82.9424	30.7617	83.048	30.7617	82.9455	30.7617	83.0463	30.7617	82.9507	30.7617	83.0434	30.7617	82.9574	30.7617	83.0393	30.7617	82.9655	30.7617	83.0341	30.7617	82.9745	30.7617	83.0278	30.7617	82.9841	30.7617	83.0205	30.7617	82.9938	30.7617	83.0122	30.7617	83.0033
32.2266	83.2761	32.2266	83.2655	32.2266	83.2867	32.2266	83.2554	32.2266	83.2972	32.2266	83.2459	32.2266	83.3071	32.2266	83.2374	32.2266	83.3162	32.2266	83.2299	32.2266	83.3241	32.2266	83.2239	32.2266	83.3306	32.2266	83.2194	32.2266	83.3355	32.2266	83.2167	32.2266	83.3384	32.2266	83.2157	32.2266	83.3394	32.2266	83.2167	32.2266	83.3384	32.2266	83.2194	32.2266	83.3355	32.2266	83.2239	32.2266	83.3306	32.2266	83.2299	32.2266	83.3241	32.2266	83.2374	32.2266	83.3162	32.2266	83.2459	32.2266	83.3071	32.2266	83.2554	32.2266	83.2972	32.2266	83.2655	32.2266	83.2867	32.2266	83.2761
33.6914	83.8217	33.6914	83.8109	33.6914	83.8329	33.6914	83.8009	33.6914	83.8441	33.6914	83.7918	33.6914	83.8549	33.6914	83.7839	33.6914	83.865	33.6914	83.7773	33.6914	83.8738	33.6914	83.7721	33.6914	83.8811	33.6914	83.7683	33.6914	83.8865	33.6914	83.7661	33.6914	83.8899	33.6914	83.7653	33.6914	83.891	33.6914	83.7661	33.6914	83.8899	33.6914	83.7683	33.6914	83.8865	33.6914	83.7721	33.6914	83.8811	33.6914	83.7773	33.6914	83.8738	33.6914	83.7839	33.6914	83.865	33.6914	83.7918	33.6914	83.8549	33.6914	83.8009	33.6914	83.8441	33.6914	83.8109	33.6914	83.8329	33.6914	83.8217
35.1562	84.172	35.1562	84.1551	35.1562	84.1892	35.1562	84.139	35.1562	84.2062	35.1562	84.1241	35.1562	84.2223	35.1562	84.111	35.1562	84.237	35.1562	84.0998	35.1562	84.2499	35.1562	84.0909	35.1562	84.2603	35.1562	84.0845	35.1562	84.2681	35.1562	84.0805	35.1562	84.2729	35.1562	84.0792	35.1562	84.2745	35.1562	84.0805	35.1562	84.2729	35.1562	84.0845	35.1562	84.2681	35.1562	84.0909	35.1562	84.2603	35.1562	84.0998	35.1562	84.2499	35.1562	84.111	35.1562	84.237	35.1562	84.1241	35.1562	84.2223	35.1562	84.139	35.1562	84.2062	35.1562	84.1551	35.1562	84.1892	35.1562	84.172
36.6211	84.5417	36.6211	84.533	36.6211	84.5505	36.6211	84.5246	36.6211	84.5591	36.6211	84.5169	36.6211	84.5673	36.6211	84.51	36.6211	84.5749	36.6211	84.5041	36.6211	84.5814	36.6211	84.4994	36.6211	84.5868	36.6211	84.4959	36.6211	84.5907	36.6211	84.4938	36.6211	84.5932	36.6211	84.4931	36.6211	84.594	36.6211	84.4938	36.6211	84.5932	36.6211	84.4959	36.6211	84.5907	36.6211	84.4994	36.6211	84.5868	36.6211	84.5041	36.6211	84.5814	36.6211	84.51	36.6211	84.5749	36.6211	84.5169	36.6211	84.5673	36.6211	84.5246	36.6211	84.5591	36.6211	84.533	36.6211	84.5505	36.6211	84.5417
38.0859	84.6734	38.0859	84.6644	38.0859	84.6825	38.0859	84.6556	38.0859	84.6914	38.0859	84.6475	38.0859	84.6998	38.0859	84.6403	38.0859	84.7073	38.0859	84.6341	38.0859	84.7139	38.0859	84.6291	38.0859	84.7192	38.0859	84.6254	38.0859	84.7231	38.0859	84.6232	38.0859	84.7254	38.0859	84.6225	38.0859	84.7262	38.0859	84.6232	38.0859	84.7254	38.0859	84.6254	38.0859	84.7231	38.0859	84.6291	38.0859	84.7192	38.0859	84.6341	38.0859	84.7139	38.0859	84.6403	38.0859	84.7073	38.0859	84.6475	38.0859	84.6998	38.0859	84.6556	38.0859	84.6914	38.0859	84.6644	38.0859	84.6825	38.0859	84.6734
39.5508	85.089	39.5508	85.0857	39.5508	85.0924	39.5508	85.0828	39.5508	85.0958	39.5508	85.0802	39.5508	85.0991	39.5508	85.0781	39.5508	85.1021	39.5508	85.0765	39.5508	85.1046	39.5508	85.0753	39.5508	85.1067	39.5508	85.0745	39.5508	85.1082	39.5508	85.0741	39.5508	85.1091	39.5508	85.074	39.5508	85.1094	39.5508	85.0741	39.5508	85.1091	39.5508	85.0745	39.5508	85.1082	39.5508	85.0753	39.5508	85.1067	39.5508	85.0765	39.5508	85.1046	39.5508	85.0781	39.5508	85.1021	39.5508	85.0802	39.5508	85.0991	39.5508	85.0828	39.5508	85.0958	39.5508	85.0857	39.5508	85.0924	39.5508	85.089
41.0156	85.0135	41.0156	85.0072	41.0156	85.0196	41.0156	85.0009	41.0156	85.0253	41.0156	84.995	41.0156	85.0304	41.0156	84.9895	41.0156	85.0347	41.0156	84.9848	41.0156	85.0383	41.0156	84.981	41.0156	85.0411	41.0156	84.9782	41.0156	85.0431	41.0156	84.9765	41.0156	85.0443	41.0156	84.9759	41.0156	85.0447	41.0156	84.9765	41.0156	85.0443	41.0156	84.9782	41.0156	85.0431	41.0156	84.981	41.0156	85.0411	41.0156	84.9848	41.0156	85.0383	41.0156	84.9895	41.0156	85.0347	41.0156	84.995	41.0156	85.0304	41.0156	85.0009	41.0156	85.0253	41.0156	85.0072	41.0156	85.0196	41.0156	85.0135
42.4805	85.3505	42.4805	85.3374	42.4805	85.3637	42.4805	85.3246	42.4805	85.3765	42.4805	85.3126	42.4805	85.3884	42.4805	85.3018	42.4805	85.3992	42.4805	85.2925	42.4805	85.4085	42.4805	85.2849	42.4805	85.416	42.4805	85.2793	42.4805	85.4216	42.4805	85.2759	42.4805	85.425	42.4805	85.2748	42.4805	85.4261	42.4805	85.2759	42.4805	85.425	42.4805	85.2793	42.4805	85.4216	42.4805	85.2849	42.4805	85.416	42.4805	85.2925	42.4805	85.4085	42.4805	85.3018	42.4805	85.3992	42.4805	85.3126	42.4805	85.3884	42.4805	85.3246	42.4805	85.3765	42.4805	85.3374	42.4805	85.3637	42.4805	85.3505
43.9453	85.479	43.9453	85.4653	43.9453	85.4925	43.9453	85.452	43.9453	85.5057	43.9453	85.4396	43.9453	85.5179	43.9453	85.4283	43.9453	85.5289	43.9453	85.4187	43.9453	85.5383	43.9453	85.4108	43.9453	85.5459	43.9453	85.4051	43.9453	85.5514	43.9453	85.4015	43.9453	85.5548	43.9453	85.4004	43.9453	85.556	43.9453	85.4015	43.9453	85.5548	43.9453	85.4051	43.9453	85.5514	43.9453	85.4108	43.9453	85.5459	43.9453	85.4187	43.9453	85.5383	43.9453	85.4283	43.9453	85.5289	43.9453	85.4396	43.9453	85.5179	43.9453	85.452	43.9453	85.5057	43.9453	85.4653	43.9453	85.4925	43.9453	85.479
45.4102	85.6206	45.4102	85.6061	45.4102	85.6349	45.4102	85.592	45.4102	85.6487	45.4102	85.5787	45.4102	85.6616	45.4102	85.5667	45.4102	85.6731	45.4102	85.5564	45.4102	85.683	45.4102	85.548	45.4102	85.691	45.4102	85.5418	45.4102	85.6968	45.4102	85.5381	45.4102	85.7004	45.4102	85.5368	45.4102	85.7016	45.4102	85.5381	45.4102	85.7004	45.4102	85.5418	45.4102	85.6968	45.4102	85.548	45.4102	85.691	45.4102	85.5564	45.4102	85.683	45.4102	85.5667	45.4102	85.6731	45.4102	85.5787	45.4102	85.6616	45.4102	85.592	45.4102	85.6487	45.4102	85.6061	45.4102	85.6349	45.4102	85.6206
46.875	85.7163	46.875	85.7003	46.875	85.732	46.875	85.6846	46.875	85.7471	46.875	85.6697	46.875	85.761	46.875	85.656	46.875	85.7734	46.875	85.644	46.875	85.7841	46.875	85.6342	46.875	85.7927	46.875	85.6269	46.875	85.799	46.875	85.6224	46.875	85.8028	46.875	85.6209	46.875	85.8041	46.875	85.6224	46.875	85.8028	46.875	85.6269	46.875	85.799	46.875	85.6342	46.875	85.7927	46.875	85.644	46.875	85.7841	46.875	85.656	46.875	85.7734	46.875	85.6697	46.875	85.761	46.875	85.6846	46.875	85.7471	46.875	85.7003	46.875	85.732	46.875	85.7163
48.3398	85.7491	48.3398	85.7298	48.3398	85.7681	48.3398	85.7108	48.3398	85.7862	48.3398	85.6926	48.3398	85.8029	48.3398	85.6759	48.3398	85.8179	48.3398	85.6612	48.3398	85.8307	48.3398	85.6492	48.3398	85.8411	48.3398	85.6402	48.3398	85.8486	48.3398	85.6346	48.3398	85.8533	48.3398	85.6327	48.3398	85.8548	48.3398	85.6346	48.3398	85.8533	48.3398	85.6402	48.3398	85.8486	48.3398	85.6492	48.3398	85.8411	48.3398	85.6612	48.3398	85.8307	48.3398	85.6759	48.3398	85.8179	48.3398	85.6926	48.3398	85.8029	48.3398	85.7108	48.3398	85.7862	48.3398	85.7298	48.3398	85.7681	48.3398	85.7491
51.2695	86.1262	51.2695	86.1105	51.2695	86.1413	51.2695	86.0948	51.2695	86.1553	51.2695	86.0795	51.2695	86.1681	51.2695	86.0653	51.2695	86.1791	51.2695	86.0527	51.2695	86.1884	51.2695	86.0423	51.2695	86.1957	51.2695	86.0344	51.2695	86.2009	51.2695	86.0296	51.2695	86.2041	51.2695	86.0279	51.2695	86.2051	51.2695	86.0296	51.2695	86.2041	51.2695	86.0344	51.2695	86.2009	51.2695	86.0423	51.2695	86.1957	51.2695	86.0527	51.2695	86.1884	51.2695	86.0653	51.2695	86.1791	51.2695	86.0795	51.2695	86.1681	51.2695	86.0948	51.2695	86.1553	51.2695	86.1105	51.2695	86.1413	51.2695	86.1262
52.7344	86.174	52.7344	86.1586	52.7344	86.1887	52.7344	86.1431	52.7344	86.2025	52.7344	86.128	52.7344	86.2149	52.7344	86.1139	52.7344	86.2257	52.7344	86.1014	52.7344	86.2347	52.7344	86.091	52.7344	86.2418	52.7344	86.0831	52.7344	86.2469	52.7344	86.0783	52.7344	86.25	52.7344	86.0766	52.7344	86.251	52.7344	86.0783	52.7344	86.25	52.7344	86.0831	52.7344	86.2469	52.7344	86.091	52.7344	86.2418	52.7344	86.1014	52.7344	86.2347	52.7344	86.1139	52.7344	86.2257	52.7344	86.128	52.7344	86.2149	52.7344	86.1431	52.7344	86.2025	52.7344	86.1586	52.7344	86.1887	52.7344	86.174
54.1992	86.1482	54.1992	86.1348	54.1992	86.1608	54.1992	86.1211	54.1992	86.1723	54.1992	86.1075	54.1992	86.1824	54.1992	86.0947	54.1992	86.191	54.1992	86.0831	54.1992	86.1981	54.1992	86.0733	54.1992	86.2035	54.1992	86.066	54.1992	86.2074	54.1992	86.0614	54.1992	86.2097	54.1992	86.0598	54.1992	86.2105	54.1992	86.0614	54.1992	86.2097	54.1992	86.066	54.1992	86.2074	54.1992	86.0733	54.1992	86.2035	54.1992	86.0831	54.1992	86.1981	54.1992	86.0947	54.1992	86.191	54.1992	86.1075	54.1992	86.1824	54.1992	86.1211	54.1992	86.1723	54.1992	86.1348	54.1992	86.1608	54.1992	86.1482
55.6641	86.2006	55.6641	86.1918	55.6641	86.2087	55.6641	86.1826	55.6641	86.2159	55.6641	86.1735	55.6641	86.2221	55.6641	86.1648	55.6641	86.2271	55.6641	86.157	55.6641	86.231	55.6641	86.1504	55.6641	86.2338	55.6641	86.1455	55.6641	86.2358	55.6641	86.1424	55.6641	86.2369	55.6641	86.1413	55.6641	86.2372	55.6641	86.1424	55.6641	86.2369	55.6641	86.1455	55.6641	86.2358	55.6641	86.1504	55.6641	86.2338	55.6641	86.157	55.6641	86.231	55.6641	86.1648	55.6641	86.2271	55.6641	86.1735	55.6641	86.2221	55.6641	86.1826	55.6641	86.2159	55.6641	86.1918	55.6641	86.2087	55.6641	86.2006
58.5938	86.4763	58.5938	86.4594	58.5938	86.4918	58.5938	86.4418	58.5938	86.5055	58.5938	86.424	58.5938	86.5172	58.5938	86.4069	58.5938	86.5268	58.5938	86.3914	58.5938	86.5344	58.5938	86.3782	58.5938	86.54	58.5938	86.3682	58.5938	86.5439	58.5938	86.3619	58.5938	86.5461	58.5938	86.3597	58.5938	86.5469	58.5938	86.3619	58.5938	86.5461	58.5938	86.3682	58.5938	86.5439	58.5938	86.3782	58.5938	86.54	58.5938	86.3914	58.5938	86.5344	58.5938	86.4069	58.5938	86.5268	58.5938	86.424	58.5938	86.5172	58.5938	86.4418	58.5938	86.5055	58.5938	86.4594	58.5938	86.4918	58.5938	86.4763
60.0586	86.5714	60.0586	86.5601	60.0586	86.5818	60.0586	86.5483	60.0586	86.5912	60.0586	86.5365	60.0586	86.5992	60.0586	86.5251	60.0586	86.6059	60.0586	86.5149	60.0586	86.6112	60.0586	86.5062	60.0586	86.6152	60.0586	86.4996	60.0586	86.618	60.0586	86.4955	60.0586	86.6196	60.0586	86.4941	60.0586	86.6201	60.0586	86.4955	60.0586	86.6196	60.0586	86.4996	60.0586	86.618	60.0586	86.5062	60.0586	86.6152	60.0586	86.5149	60.0586	86.6112	60.0586	86.5251	60.0586	86.6059	60.0586	86.5365	60.0586	86.5992	60.0586	86.5483	60.0586	86.5912	60.0586	86.5601	60.0586	86.5818	60.0586	86.5714
62.9883	86.4569	62.9883	86.446	62.9883	86.4673	62.9883	86.4347	62.9883	86.4766	62.9883	86.4235	62.9883	86.4849	62.9883	86.4129	62.9883	86.4918	62.9883	86.4035	62.9883	86.4974	62.9883	86.3956	62.9883	86.5017	62.9883	86.3896	62.9883	86.5047	62.9883	86.3859	62.9883	86.5065	62.9883	86.3846	62.9883	86.5071	62.9883	86.3859	62.9883	86.5065	62.9883	86.3896	62.9883	86.5047	62.9883	86.3956	62.9883	86.5017	62.9883	86.4035	62.9883	86.4974	62.9883	86.4129	62.9883	86.4918	62.9883	86.4235	62.9883	86.4849	62.9883	86.4347	62.9883	86.4766	62.9883	86.446	62.9883	86.4673	62.9883	86.4569
64.4531	86.4178	64.4531	86.4084	64.4531	86.4263	64.4531	86.3985	64.4531	86.4338	64.4531	86.3886	64.4531	86.4401	64.4531	86.379	64.4531	86.4452	64.4531	86.3703	64.4531	86.4491	64.4531	86.363	64.4531	86.452	64.4531	86.3575	64.4531	86.4539	64.4531	86.354	64.4531	86.4549	64.4531	86.3528	64.4531	86.4553	64.4531	86.354	64.4531	86.4549	64.4531	86.3575	64.4531	86.4539	64.4531	86.363	64.4531	86.452	64.4531	86.3703	64.4531	86.4491	64.4531	86.379	64.4531	86.4452	64.4531	86.3886	64.4531	86.4401	64.4531	86.3985	64.4531	86.4338	64.4531	86.4084	64.4531	86.4263	64.4531	86.4178
67.3828	86.4948	67.3828	86.483	67.3828	86.5059	67.3828	86.471	67.3828	86.516	67.3828	86.4592	67.3828	86.5249	67.3828	86.448	67.3828	86.5325	67.3828	86.438	67.3828	86.5386	67.3828	86.4297	67.3828	86.5434	67.3828	86.4235	67.3828	86.5467	67.3828	86.4196	67.3828	86.5487	67.3828	86.4183	67.3828	86.5493	67.3828	86.4196	67.3828	86.5487	67.3828	86.4235	67.3828	86.5467	67.3828	86.4297	67.3828	86.5434	67.3828	86.438	67.3828	86.5386	67.3828	86.448	67.3828	86.5325	67.3828	86.4592	67.3828	86.5249	67.3828	86.471	67.3828	86.516	67.3828	86.483	67.3828	86.5059	67.3828	86.4948
