"SPL Vertical"																																																																							
"On-Axis"		"10°"		"-10°"		"20°"		"-20°"		"30°"		"-30°"		"40°"		"-40°"		"50°"		"-50°"		"60°"		"-60°"		"70°"		"-70°"		"80°"		"-80°"		"90°"		"-90°"		"100°"		"-100°"		"110°"		"-110°"		"120°"		"-120°"		"130°"		"-130°"		"140°"		"-140°"		"150°"		"-150°"		"160°"		"-160°"		"170°"		"-170°"		"180°"	
"Frequency / Hz"	"Sound Pressure Level / dB (re 20 µPa/V)  [2.83  V @ 1. m]"	"Frequency / Hz"	"Sound Pressure Level / dB (re 20 µPa/V)  [2.83  V @ 1. m]"	"Frequency / Hz"	"Sound Pressure Level / dB (re 20 µPa/V)  [2.83  V @ 1. m]"	"Frequency / Hz"	"Sound Pressure Level / dB (re 20 µPa/V)  [2.83  V @ 1. m]"	"Frequency / Hz"	"Sound Pressure Level / dB (re 20 µPa/V)  [2.83  V @ 1. m]"	"Frequency / Hz"	"Sound Pressure Level / dB (re 20 µPa/V)  [2.83  V @ 1. m]"	"Frequency / Hz"	"Sound Pressure Level / dB (re 20 µPa/V)  [2.83  V @ 1. m]"	"Frequency / Hz"	"Sound Pressure Level / dB (re 20 µPa/V)  [2.83  V @ 1. m]"	"Frequency / Hz"	"Sound Pressure Level / dB (re 20 µPa/V)  [2.83  V @ 1. m]"	"Frequency / Hz"	"Sound Pressure Level / dB (re 20 µPa/V)  [2.83  V @ 1. m]"	"Frequency / Hz"	"Sound Pressure Level / dB (re 20 µPa/V)  [2.83  V @ 1. m]"	"Frequency / Hz"	"Sound Pressure Level / dB (re 20 µPa/V)  [2.83  V @ 1. m]"	"Frequency / Hz"	"Sound Pressure Level / dB (re 20 µPa/V)  [2.83  V @ 1. m]"	"Frequency / Hz"	"Sound Pressure Level / dB (re 20 µPa/V)  [2.83  V @ 1. m]"	"Frequency / Hz"	"Sound Pressure Level / dB (re 20 µPa/V)  [2.83  V @ 1. m]"	"Frequency / Hz"	"Sound Pressure Level / dB (re 20 µPa/V)  [2.83  V @ 1. m]"	"Frequency / Hz"	"Sound Pressure Level / dB (re 20 µPa/V)  [2.83  V @ 1. m]"	"Frequency / Hz"	"Sound Pressure Level / dB (re 20 µPa/V)  [2.83  V @ 1. m]"	"Frequency / Hz"	"Sound Pressure Level / dB (re 20 µPa/V)  [2.83  V @ 1. m]"	"Frequency / Hz"	"Sound Pressure Level / dB (re 20 µPa/V)  [2.83  V @ 1. m]"	"Frequency / Hz"	"Sound Pressure Level / dB (re 20 µPa/V)  [2.83  V @ 1. m]"	"Frequency / Hz"	"Sound Pressure Level / dB (re 20 µPa/V)  [2.83  V @ 1. m]"	"Frequency / Hz"	"Sound Pressure Level / dB (re 20 µPa/V)  [2.83  V @ 1. m]"	"Frequency / Hz"	"Sound Pressure Level / dB (re 20 µPa/V)  [2.83  V @ 1. m]"	"Frequency / Hz"	"Sound Pressure Level / dB (re 20 µPa/V)  [2.83  V @ 1. m]"	"Frequency / Hz"	"Sound Pressure Level / dB (re 20 µPa/V)  [2.83  V @ 1. m]"	"Frequency / Hz"	"Sound Pressure Level / dB (re 20 µPa/V)  [2.83  V @ 1. m]"	"Frequency / Hz"	"Sound Pressure Level / dB (re 20 µPa/V)  [2.83  V @ 1. m]"	"Frequency / Hz"	"Sound Pressure Level / dB (re 20 µPa/V)  [2.83  V @ 1. m]"	"Frequency / Hz"	"Sound Pressure Level / dB (re 20 µPa/V)  [2.83  V @ 1. m]"	"Frequency / Hz"	"Sound Pressure Level / dB (re 20 µPa/V)  [2.83  V @ 1. m]"	"Frequency / Hz"	"Sound Pressure Level / dB (re 20 µPa/V)  [2.83  V @ 1. m]"	"Frequency / Hz"	"Sound Pressure Level / dB (re 20 µPa/V)  [2.83  V @ 1. m]"	"Frequency / Hz"	"Sound Pressure Level / dB (re 20 µPa/V)  [2.83  V @ 1. m]"	"Frequency / Hz"	"Sound Pressure Level / dB (re 20 µPa/V)  [2.83  V @ 1. m]"	"Frequency / Hz"	"Sound Pressure Level / dB (re 20 µPa/V)  [2.83  V @ 1. m]"
20.5078	77.0239	20.5078	77.018	20.5078	77.03	20.5078	77.0125	20.5078	77.036	20.5078	77.0075	20.5078	77.0417	20.5078	77.0031	20.5078	77.047	20.5078	76.9995	20.5078	77.0516	20.5078	76.9967	20.5078	77.0553	20.5078	76.9946	20.5078	77.0581	20.5078	76.9934	20.5078	77.0598	20.5078	76.993	20.5078	77.0603	20.5078	76.9934	20.5078	77.0598	20.5078	76.9946	20.5078	77.0581	20.5078	76.9967	20.5078	77.0553	20.5078	76.9995	20.5078	77.0516	20.5078	77.0031	20.5078	77.047	20.5078	77.0075	20.5078	77.0417	20.5078	77.0125	20.5078	77.036	20.5078	77.018	20.5078	77.03	20.5078	77.0239
21.9727	78.3829	21.9727	78.3782	21.9727	78.3876	21.9727	78.3738	21.9727	78.3923	21.9727	78.3697	21.9727	78.3968	21.9727	78.3661	21.9727	78.4009	21.9727	78.3631	21.9727	78.4045	21.9727	78.3607	21.9727	78.4074	21.9727	78.3589	21.9727	78.4096	21.9727	78.3578	21.9727	78.4109	21.9727	78.3575	21.9727	78.4113	21.9727	78.3578	21.9727	78.4109	21.9727	78.3589	21.9727	78.4096	21.9727	78.3607	21.9727	78.4074	21.9727	78.3631	21.9727	78.4045	21.9727	78.3661	21.9727	78.4009	21.9727	78.3697	21.9727	78.3968	21.9727	78.3738	21.9727	78.3923	21.9727	78.3782	21.9727	78.3876	21.9727	78.3829
23.4375	79.41	23.4375	79.4041	23.4375	79.4161	23.4375	79.3984	23.4375	79.4221	23.4375	79.3931	23.4375	79.4278	23.4375	79.3885	23.4375	79.433	23.4375	79.3845	23.4375	79.4375	23.4375	79.3812	23.4375	79.4412	23.4375	79.3788	23.4375	79.444	23.4375	79.3774	23.4375	79.4457	23.4375	79.3769	23.4375	79.4463	23.4375	79.3774	23.4375	79.4457	23.4375	79.3788	23.4375	79.444	23.4375	79.3812	23.4375	79.4412	23.4375	79.3845	23.4375	79.4375	23.4375	79.3885	23.4375	79.433	23.4375	79.3931	23.4375	79.4278	23.4375	79.3984	23.4375	79.4221	23.4375	79.4041	23.4375	79.4161	23.4375	79.41
24.9023	80.241	24.9023	80.2351	24.9023	80.2469	24.9023	80.2294	24.9023	80.2525	24.9023	80.2239	24.9023	80.2577	24.9023	80.2189	24.9023	80.2624	24.9023	80.2146	24.9023	80.2664	24.9023	80.211	24.9023	80.2697	24.9023	80.2084	24.9023	80.272	24.9023	80.2068	24.9023	80.2735	24.9023	80.2062	24.9023	80.274	24.9023	80.2068	24.9023	80.2735	24.9023	80.2084	24.9023	80.272	24.9023	80.211	24.9023	80.2697	24.9023	80.2146	24.9023	80.2664	24.9023	80.2189	24.9023	80.2624	24.9023	80.2239	24.9023	80.2577	24.9023	80.2294	24.9023	80.2525	24.9023	80.2351	24.9023	80.2469	24.9023	80.241
26.3672	81.0697	26.3672	81.0635	26.3672	81.076	26.3672	81.0575	26.3672	81.0821	26.3672	81.052	26.3672	81.088	26.3672	81.047	26.3672	81.0934	26.3672	81.0428	26.3672	81.0981	26.3672	81.0393	26.3672	81.1019	26.3672	81.0367	26.3672	81.1048	26.3672	81.0351	26.3672	81.1065	26.3672	81.0346	26.3672	81.1071	26.3672	81.0351	26.3672	81.1065	26.3672	81.0367	26.3672	81.1048	26.3672	81.0393	26.3672	81.1019	26.3672	81.0428	26.3672	81.0981	26.3672	81.047	26.3672	81.0934	26.3672	81.052	26.3672	81.088	26.3672	81.0575	26.3672	81.0821	26.3672	81.0635	26.3672	81.076	26.3672	81.0697
27.832	81.7607	27.832	81.752	27.832	81.7695	27.832	81.7435	27.832	81.778	27.832	81.7355	27.832	81.7859	27.832	81.7282	27.832	81.7932	27.832	81.7218	27.832	81.7995	27.832	81.7166	27.832	81.8047	27.832	81.7128	27.832	81.8085	27.832	81.7104	27.832	81.8108	27.832	81.7096	27.832	81.8116	27.832	81.7104	27.832	81.8108	27.832	81.7128	27.832	81.8085	27.832	81.7166	27.832	81.8047	27.832	81.7218	27.832	81.7995	27.832	81.7282	27.832	81.7932	27.832	81.7355	27.832	81.7859	27.832	81.7435	27.832	81.778	27.832	81.752	27.832	81.7695	27.832	81.7607
29.2969	82.3941	29.2969	82.3838	29.2969	82.4043	29.2969	82.3738	29.2969	82.4143	29.2969	82.3644	29.2969	82.4237	29.2969	82.3558	29.2969	82.4322	29.2969	82.3483	29.2969	82.4396	29.2969	82.3422	29.2969	82.4457	29.2969	82.3377	29.2969	82.4501	29.2969	82.3349	29.2969	82.4529	29.2969	82.3339	29.2969	82.4538	29.2969	82.3349	29.2969	82.4529	29.2969	82.3377	29.2969	82.4501	29.2969	82.3422	29.2969	82.4457	29.2969	82.3483	29.2969	82.4396	29.2969	82.3558	29.2969	82.4322	29.2969	82.3644	29.2969	82.4237	29.2969	82.3738	29.2969	82.4143	29.2969	82.3838	29.2969	82.4043	29.2969	82.3941
30.7617	83.0033	30.7617	82.9849	30.7617	83.0213	30.7617	82.9668	30.7617	83.0384	30.7617	82.9494	30.7617	83.0543	30.7617	82.9334	30.7617	83.0685	30.7617	82.9193	30.7617	83.0806	30.7617	82.9076	30.7617	83.0903	30.7617	82.8989	30.7617	83.0974	30.7617	82.8935	30.7617	83.1018	30.7617	82.8917	30.7617	83.1032	30.7617	82.8935	30.7617	83.1018	30.7617	82.8989	30.7617	83.0974	30.7617	82.9076	30.7617	83.0903	30.7617	82.9193	30.7617	83.0806	30.7617	82.9334	30.7617	83.0685	30.7617	82.9494	30.7617	83.0543	30.7617	82.9668	30.7617	83.0384	30.7617	82.9849	30.7617	83.0213	30.7617	83.0033
32.2266	83.2761	32.2266	83.2673	32.2266	83.2848	32.2266	83.2589	32.2266	83.2933	32.2266	83.2509	32.2266	83.3014	32.2266	83.2436	32.2266	83.3087	32.2266	83.2372	32.2266	83.3152	32.2266	83.2319	32.2266	83.3205	32.2266	83.228	32.2266	83.3244	32.2266	83.2256	32.2266	83.3268	32.2266	83.2248	32.2266	83.3277	32.2266	83.2256	32.2266	83.3268	32.2266	83.228	32.2266	83.3244	32.2266	83.2319	32.2266	83.3205	32.2266	83.2372	32.2266	83.3152	32.2266	83.2436	32.2266	83.3087	32.2266	83.2509	32.2266	83.3014	32.2266	83.2589	32.2266	83.2933	32.2266	83.2673	32.2266	83.2848	32.2266	83.2761
33.6914	83.8217	33.6914	83.8109	33.6914	83.8327	33.6914	83.8004	33.6914	83.8436	33.6914	83.7907	33.6914	83.8541	33.6914	83.7819	33.6914	83.8637	33.6914	83.7742	33.6914	83.8723	33.6914	83.768	33.6914	83.8794	33.6914	83.7634	33.6914	83.8848	33.6914	83.7605	33.6914	83.8881	33.6914	83.7596	33.6914	83.8892	33.6914	83.7605	33.6914	83.8881	33.6914	83.7634	33.6914	83.8848	33.6914	83.768	33.6914	83.8794	33.6914	83.7742	33.6914	83.8723	33.6914	83.7819	33.6914	83.8637	33.6914	83.7907	33.6914	83.8541	33.6914	83.8004	33.6914	83.8436	33.6914	83.8109	33.6914	83.8327	33.6914	83.8217
35.1562	84.172	35.1562	84.1634	35.1562	84.1807	35.1562	84.155	35.1562	84.1892	35.1562	84.1472	35.1562	84.1974	35.1562	84.14	35.1562	84.2048	35.1562	84.1338	35.1562	84.2114	35.1562	84.1286	35.1562	84.2169	35.1562	84.1248	35.1562	84.221	35.1562	84.1225	35.1562	84.2235	35.1562	84.1217	35.1562	84.2244	35.1562	84.1225	35.1562	84.2235	35.1562	84.1248	35.1562	84.221	35.1562	84.1286	35.1562	84.2169	35.1562	84.1338	35.1562	84.2114	35.1562	84.14	35.1562	84.2048	35.1562	84.1472	35.1562	84.1974	35.1562	84.155	35.1562	84.1892	35.1562	84.1634	35.1562	84.1807	35.1562	84.172
36.6211	84.5417	36.6211	84.5379	36.6211	84.5453	36.6211	84.5341	36.6211	84.5488	36.6211	84.5303	36.6211	84.5521	36.6211	84.5268	36.6211	84.555	36.6211	84.5236	36.6211	84.5575	36.6211	84.5209	36.6211	84.5595	36.6211	84.5189	36.6211	84.5611	36.6211	84.5176	36.6211	84.562	36.6211	84.5171	36.6211	84.5623	36.6211	84.5176	36.6211	84.562	36.6211	84.5189	36.6211	84.5611	36.6211	84.5209	36.6211	84.5595	36.6211	84.5236	36.6211	84.5575	36.6211	84.5268	36.6211	84.555	36.6211	84.5303	36.6211	84.5521	36.6211	84.5341	36.6211	84.5488	36.6211	84.5379	36.6211	84.5453	36.6211	84.5417
38.0859	84.6734	38.0859	84.6697	38.0859	84.6769	38.0859	84.666	38.0859	84.6801	38.0859	84.6622	38.0859	84.683	38.0859	84.6587	38.0859	84.6855	38.0859	84.6555	38.0859	84.6876	38.0859	84.6528	38.0859	84.6892	38.0859	84.6507	38.0859	84.6904	38.0859	84.6494	38.0859	84.6911	38.0859	84.649	38.0859	84.6913	38.0859	84.6494	38.0859	84.6911	38.0859	84.6507	38.0859	84.6904	38.0859	84.6528	38.0859	84.6892	38.0859	84.6555	38.0859	84.6876	38.0859	84.6587	38.0859	84.6855	38.0859	84.6622	38.0859	84.683	38.0859	84.666	38.0859	84.6801	38.0859	84.6697	38.0859	84.6769	38.0859	84.6734
39.5508	85.089	39.5508	85.0797	39.5508	85.0983	39.5508	85.0707	39.5508	85.1075	39.5508	85.0622	39.5508	85.1162	39.5508	85.0544	39.5508	85.1242	39.5508	85.0477	39.5508	85.1313	39.5508	85.0421	39.5508	85.1372	39.5508	85.038	39.5508	85.1415	39.5508	85.0354	39.5508	85.1442	39.5508	85.0346	39.5508	85.1452	39.5508	85.0354	39.5508	85.1442	39.5508	85.038	39.5508	85.1415	39.5508	85.0421	39.5508	85.1372	39.5508	85.0477	39.5508	85.1313	39.5508	85.0544	39.5508	85.1242	39.5508	85.0622	39.5508	85.1162	39.5508	85.0707	39.5508	85.1075	39.5508	85.0797	39.5508	85.0983	39.5508	85.089
41.0156	85.0135	41.0156	85.0087	41.0156	85.0182	41.0156	85.004	41.0156	85.0227	41.0156	84.9994	41.0156	85.0268	41.0156	84.9952	41.0156	85.0306	41.0156	84.9914	41.0156	85.0338	41.0156	84.9883	41.0156	85.0365	41.0156	84.9859	41.0156	85.0385	41.0156	84.9844	41.0156	85.0397	41.0156	84.9839	41.0156	85.0401	41.0156	84.9844	41.0156	85.0397	41.0156	84.9859	41.0156	85.0385	41.0156	84.9883	41.0156	85.0365	41.0156	84.9914	41.0156	85.0338	41.0156	84.9952	41.0156	85.0306	41.0156	84.9994	41.0156	85.0268	41.0156	85.004	41.0156	85.0227	41.0156	85.0087	41.0156	85.0182	41.0156	85.0135
42.4805	85.3505	42.4805	85.3507	42.4805	85.3503	42.4805	85.3506	42.4805	85.35	42.4805	85.3504	42.4805	85.3496	42.4805	85.3501	42.4805	85.3492	42.4805	85.3498	42.4805	85.3488	42.4805	85.3494	42.4805	85.3484	42.4805	85.349	42.4805	85.3482	42.4805	85.3488	42.4805	85.348	42.4805	85.3487	42.4805	85.3479	42.4805	85.3488	42.4805	85.348	42.4805	85.349	42.4805	85.3482	42.4805	85.3494	42.4805	85.3484	42.4805	85.3498	42.4805	85.3488	42.4805	85.3501	42.4805	85.3492	42.4805	85.3504	42.4805	85.3496	42.4805	85.3506	42.4805	85.35	42.4805	85.3507	42.4805	85.3503	42.4805	85.3505
43.9453	85.479	43.9453	85.4807	43.9453	85.477	43.9453	85.4821	43.9453	85.4748	43.9453	85.4832	43.9453	85.4725	43.9453	85.4839	43.9453	85.4703	43.9453	85.4844	43.9453	85.4682	43.9453	85.4846	43.9453	85.4665	43.9453	85.4847	43.9453	85.4651	43.9453	85.4847	43.9453	85.4643	43.9453	85.4847	43.9453	85.464	43.9453	85.4847	43.9453	85.4643	43.9453	85.4847	43.9453	85.4651	43.9453	85.4846	43.9453	85.4665	43.9453	85.4844	43.9453	85.4682	43.9453	85.4839	43.9453	85.4703	43.9453	85.4832	43.9453	85.4725	43.9453	85.4821	43.9453	85.4748	43.9453	85.4807	43.9453	85.477	43.9453	85.479
45.4102	85.6206	45.4102	85.6206	45.4102	85.6201	45.4102	85.6202	45.4102	85.6194	45.4102	85.6195	45.4102	85.6183	45.4102	85.6186	45.4102	85.6171	45.4102	85.6176	45.4102	85.6158	45.4102	85.6166	45.4102	85.6147	45.4102	85.6157	45.4102	85.6137	45.4102	85.6152	45.4102	85.6131	45.4102	85.615	45.4102	85.6129	45.4102	85.6152	45.4102	85.6131	45.4102	85.6157	45.4102	85.6137	45.4102	85.6166	45.4102	85.6147	45.4102	85.6176	45.4102	85.6158	45.4102	85.6186	45.4102	85.6171	45.4102	85.6195	45.4102	85.6183	45.4102	85.6202	45.4102	85.6194	45.4102	85.6206	45.4102	85.6201	45.4102	85.6206
46.875	85.7163	46.875	85.7136	46.875	85.7184	46.875	85.7104	46.875	85.7199	46.875	85.707	46.875	85.7208	46.875	85.7035	46.875	85.7211	46.875	85.7002	46.875	85.7211	46.875	85.6973	46.875	85.7208	46.875	85.695	46.875	85.7205	46.875	85.6936	46.875	85.7202	46.875	85.6931	46.875	85.7201	46.875	85.6936	46.875	85.7202	46.875	85.695	46.875	85.7205	46.875	85.6973	46.875	85.7208	46.875	85.7002	46.875	85.7211	46.875	85.7035	46.875	85.7211	46.875	85.707	46.875	85.7208	46.875	85.7104	46.875	85.7199	46.875	85.7136	46.875	85.7184	46.875	85.7163
48.3398	85.7491	48.3398	85.7438	48.3398	85.7542	48.3398	85.7384	48.3398	85.7589	48.3398	85.7332	48.3398	85.7631	48.3398	85.7283	48.3398	85.7667	48.3398	85.7239	48.3398	85.7698	48.3398	85.7203	48.3398	85.7721	48.3398	85.7176	48.3398	85.7738	48.3398	85.7159	48.3398	85.7749	48.3398	85.7153	48.3398	85.7752	48.3398	85.7159	48.3398	85.7749	48.3398	85.7176	48.3398	85.7738	48.3398	85.7203	48.3398	85.7721	48.3398	85.7239	48.3398	85.7698	48.3398	85.7283	48.3398	85.7667	48.3398	85.7332	48.3398	85.7631	48.3398	85.7384	48.3398	85.7589	48.3398	85.7438	48.3398	85.7542	48.3398	85.7491
51.2695	86.1262	51.2695	86.1239	51.2695	86.1278	51.2695	86.1209	51.2695	86.1288	51.2695	86.1174	51.2695	86.1291	51.2695	86.1136	51.2695	86.129	51.2695	86.1099	51.2695	86.1287	51.2695	86.1065	51.2695	86.1282	51.2695	86.1038	51.2695	86.1277	51.2695	86.102	51.2695	86.1273	51.2695	86.1014	51.2695	86.1272	51.2695	86.102	51.2695	86.1273	51.2695	86.1038	51.2695	86.1277	51.2695	86.1065	51.2695	86.1282	51.2695	86.1099	51.2695	86.1287	51.2695	86.1136	51.2695	86.129	51.2695	86.1174	51.2695	86.1291	51.2695	86.1209	51.2695	86.1288	51.2695	86.1239	51.2695	86.1278	51.2695	86.1262
52.7344	86.174	52.7344	86.1718	52.7344	86.1754	52.7344	86.169	52.7344	86.176	52.7344	86.1656	52.7344	86.1761	52.7344	86.1619	52.7344	86.1756	52.7344	86.1583	52.7344	86.1749	52.7344	86.155	52.7344	86.174	52.7344	86.1524	52.7344	86.1733	52.7344	86.1507	52.7344	86.1728	52.7344	86.1501	52.7344	86.1726	52.7344	86.1507	52.7344	86.1728	52.7344	86.1524	52.7344	86.1733	52.7344	86.155	52.7344	86.174	52.7344	86.1583	52.7344	86.1749	52.7344	86.1619	52.7344	86.1756	52.7344	86.1656	52.7344	86.1761	52.7344	86.169	52.7344	86.176	52.7344	86.1718	52.7344	86.1754	52.7344	86.174
54.1992	86.1482	54.1992	86.1425	54.1992	86.1533	54.1992	86.1365	54.1992	86.1576	54.1992	86.1303	54.1992	86.1612	54.1992	86.1242	54.1992	86.164	54.1992	86.1187	54.1992	86.1661	54.1992	86.114	54.1992	86.1676	54.1992	86.1105	54.1992	86.1686	54.1992	86.1082	54.1992	86.1692	54.1992	86.1074	54.1992	86.1693	54.1992	86.1082	54.1992	86.1692	54.1992	86.1105	54.1992	86.1686	54.1992	86.114	54.1992	86.1676	54.1992	86.1187	54.1992	86.1661	54.1992	86.1242	54.1992	86.164	54.1992	86.1303	54.1992	86.1612	54.1992	86.1365	54.1992	86.1576	54.1992	86.1425	54.1992	86.1533	54.1992	86.1482
55.6641	86.2006	55.6641	86.1973	55.6641	86.2035	55.6641	86.1939	55.6641	86.2061	55.6641	86.1905	55.6641	86.2083	55.6641	86.1871	55.6641	86.2101	55.6641	86.1841	55.6641	86.2114	55.6641	86.1816	55.6641	86.2125	55.6641	86.1796	55.6641	86.2132	55.6641	86.1784	55.6641	86.2136	55.6641	86.178	55.6641	86.2137	55.6641	86.1784	55.6641	86.2136	55.6641	86.1796	55.6641	86.2132	55.6641	86.1816	55.6641	86.2125	55.6641	86.1841	55.6641	86.2114	55.6641	86.1871	55.6641	86.2101	55.6641	86.1905	55.6641	86.2083	55.6641	86.1939	55.6641	86.2061	55.6641	86.1973	55.6641	86.2035	55.6641	86.2006
58.5938	86.4763	58.5938	86.4755	58.5938	86.476	58.5938	86.4738	58.5938	86.4748	58.5938	86.4712	58.5938	86.4728	58.5938	86.468	58.5938	86.4703	58.5938	86.4645	58.5938	86.4677	58.5938	86.4613	58.5938	86.4652	58.5938	86.4586	58.5938	86.4632	58.5938	86.4568	58.5938	86.4619	58.5938	86.4562	58.5938	86.4614	58.5938	86.4568	58.5938	86.4619	58.5938	86.4586	58.5938	86.4632	58.5938	86.4613	58.5938	86.4652	58.5938	86.4645	58.5938	86.4677	58.5938	86.468	58.5938	86.4703	58.5938	86.4712	58.5938	86.4728	58.5938	86.4738	58.5938	86.4748	58.5938	86.4755	58.5938	86.476	58.5938	86.4763
60.0586	86.5714	60.0586	86.5736	60.0586	86.5684	60.0586	86.575	60.0586	86.5648	60.0586	86.5757	60.0586	86.5608	60.0586	86.5757	60.0586	86.5568	60.0586	86.5753	60.0586	86.5529	60.0586	86.5747	60.0586	86.5495	60.0586	86.574	60.0586	86.5468	60.0586	86.5735	60.0586	86.5451	60.0586	86.5733	60.0586	86.5446	60.0586	86.5735	60.0586	86.5451	60.0586	86.574	60.0586	86.5468	60.0586	86.5747	60.0586	86.5495	60.0586	86.5753	60.0586	86.5529	60.0586	86.5757	60.0586	86.5568	60.0586	86.5757	60.0586	86.5608	60.0586	86.575	60.0586	86.5648	60.0586	86.5736	60.0586	86.5684	60.0586	86.5714
62.9883	86.4569	62.9883	86.4599	62.9883	86.4534	62.9883	86.4622	62.9883	86.4493	62.9883	86.4638	62.9883	86.4449	62.9883	86.4649	62.9883	86.4405	62.9883	86.4654	62.9883	86.4364	62.9883	86.4656	62.9883	86.4329	62.9883	86.4656	62.9883	86.4301	62.9883	86.4656	62.9883	86.4283	62.9883	86.4656	62.9883	86.4277	62.9883	86.4656	62.9883	86.4283	62.9883	86.4656	62.9883	86.4301	62.9883	86.4656	62.9883	86.4329	62.9883	86.4654	62.9883	86.4364	62.9883	86.4649	62.9883	86.4405	62.9883	86.4638	62.9883	86.4449	62.9883	86.4622	62.9883	86.4493	62.9883	86.4599	62.9883	86.4534	62.9883	86.4569
64.4531	86.4178	64.4531	86.4216	64.4531	86.4131	64.4531	86.4247	64.4531	86.4079	64.4531	86.427	64.4531	86.4024	64.4531	86.4285	64.4531	86.3968	64.4531	86.4294	64.4531	86.3917	64.4531	86.4299	64.4531	86.3872	64.4531	86.4301	64.4531	86.3837	64.4531	86.4302	64.4531	86.3815	64.4531	86.4302	64.4531	86.3808	64.4531	86.4302	64.4531	86.3815	64.4531	86.4301	64.4531	86.3837	64.4531	86.4299	64.4531	86.3872	64.4531	86.4294	64.4531	86.3917	64.4531	86.4285	64.4531	86.3968	64.4531	86.427	64.4531	86.4024	64.4531	86.4247	64.4531	86.4079	64.4531	86.4216	64.4531	86.4131	64.4531	86.4178
67.3828	86.4948	67.3828	86.4977	67.3828	86.4913	67.3828	86.4999	67.3828	86.4873	67.3828	86.5015	67.3828	86.4831	67.3828	86.5026	67.3828	86.4788	67.3828	86.5031	67.3828	86.4749	67.3828	86.5033	67.3828	86.4714	67.3828	86.5034	67.3828	86.4688	67.3828	86.5034	67.3828	86.4671	67.3828	86.5034	67.3828	86.4666	67.3828	86.5034	67.3828	86.4671	67.3828	86.5034	67.3828	86.4688	67.3828	86.5033	67.3828	86.4714	67.3828	86.5031	67.3828	86.4749	67.3828	86.5026	67.3828	86.4788	67.3828	86.5015	67.3828	86.4831	67.3828	86.4999	67.3828	86.4873	67.3828	86.4977	67.3828	86.4913	67.3828	86.4948
