"SPL Vertical"
"On-Axis"		"10°"		"-10°"		"20°"		"-20°"		"30°"		"-30°"		"40°"		"-40°"		"50°"		"-50°"		"60°"		"-60°"		"70°"		"-70°"		"80°"		"-80°"		"90°"		"-90°"		"100°"		"-100°"		"110°"		"-110°"		"120°"		"-120°"		"130°"		"-130°"		"140°"		"-140°"		"150°"		"-150°"		"160°"		"-160°"		"170°"		"-170°"		"180°"
"Frequency / Hz"	"Sound Pressure Level / dB (re 20 µPa/V)  [2.83  V @ 1. m]"	"Frequency / Hz"	"Sound Pressure Level / dB (re 20 µPa/V)  [2.83  V @ 1. m]"	"Frequency / Hz"	"Sound Pressure Level / dB (re 20 µPa/V)  [2.83  V @ 1. m]"	"Frequency / Hz"	"Sound Pressure Level / dB (re 20 µPa/V)  [2.83  V @ 1. m]"	"Frequency / Hz"	"Sound Pressure Level / dB (re 20 µPa/V)  [2.83  V @ 1. m]"	"Frequency / Hz"	"Sound Pressure Level / dB (re 20 µPa/V)  [2.83  V @ 1. m]"	"Frequency / Hz"	"Sound Pressure Level / dB (re 20 µPa/V)  [2.83  V @ 1. m]"	"Frequency / Hz"	"Sound Pressure Level / dB (re 20 µPa/V)  [2.83  V @ 1. m]"	"Frequency / Hz"	"Sound Pressure Level / dB (re 20 µPa/V)  [2.83  V @ 1. m]"	"Frequency / Hz"	"Sound Pressure Level / dB (re 20 µPa/V)  [2.83  V @ 1. m]"	"Frequency / Hz"	"Sound Pressure Level / dB (re 20 µPa/V)  [2.83  V @ 1. m]"	"Frequency / Hz"	"Sound Pressure Level / dB (re 20 µPa/V)  [2.83  V @ 1. m]"	"Frequency / Hz"	"Sound Pressure Level / dB (re 20 µPa/V)  [2.83  V @ 1. m]"	"Frequency / Hz"	"Sound Pressure Level / dB (re 20 µPa/V)  [2.83  V @ 1. m]"	"Frequency / Hz"	"Sound Pressure Level / dB (re 20 µPa/V)  [2.83  V @ 1. m]"	"Frequency / Hz"	"Sound Pressure Level / dB (re 20 µPa/V)  [2.83  V @ 1. m]"	"Frequency / Hz"	"Sound Pressure Level / dB (re 20 µPa/V)  [2.83  V @ 1. m]"	"Frequency / Hz"	"Sound Pressure Level / dB (re 20 µPa/V)  [2.83  V @ 1. m]"	"Frequency / Hz"	"Sound Pressure Level / dB (re 20 µPa/V)  [2.83  V @ 1. m]"	"Frequency / Hz"	"Sound Pressure Level / dB (re 20 µPa/V)  [2.83  V @ 1. m]"	"Frequency / Hz"	"Sound Pressure Level / dB (re 20 µPa/V)  [2.83  V @ 1. m]"	"Frequency / Hz"	"Sound Pressure Level / dB (re 20 µPa/V)  [2.83  V @ 1. m]"	"Frequency / Hz"	"Sound Pressure Level / dB (re 20 µPa/V)  [2.83  V @ 1. m]"	"Frequency / Hz"	"Sound Pressure Level / dB (re 20 µPa/V)  [2.83  V @ 1. m]"	"Frequency / Hz"	"Sound Pressure Level / dB (re 20 µPa/V)  [2.83  V @ 1. m]"	"Frequency / Hz"	"Sound Pressure Level / dB (re 20 µPa/V)  [2.83  V @ 1. m]"	"Frequency / Hz"	"Sound Pressure Level / dB (re 20 µPa/V)  [2.83  V @ 1. m]"	"Frequency / Hz"	"Sound Pressure Level / dB (re 20 µPa/V)  [2.83  V @ 1. m]"	"Frequency / Hz"	"Sound Pressure Level / dB (re 20 µPa/V)  [2.83  V @ 1. m]"	"Frequency / Hz"	"Sound Pressure Level / dB (re 20 µPa/V)  [2.83  V @ 1. m]"	"Frequency / Hz"	"Sound Pressure Level / dB (re 20 µPa/V)  [2.83  V @ 1. m]"	"Frequency / Hz"	"Sound Pressure Level / dB (re 20 µPa/V)  [2.83  V @ 1. m]"	"Frequency / Hz"	"Sound Pressure Level / dB (re 20 µPa/V)  [2.83  V @ 1. m]"	"Frequency / Hz"	"Sound Pressure Level / dB (re 20 µPa/V)  [2.83  V @ 1. m]"	"Frequency / Hz"	"Sound Pressure Level / dB (re 20 µPa/V)  [2.83  V @ 1. m]"	"Frequency / Hz"	"Sound Pressure Level / dB (re 20 µPa/V)  [2.83  V @ 1. m]"
20.5078	65.255	20.5078	65.078	20.5078	65.4253	20.5078	64.8984	20.5078	65.5839	20.5078	64.7192	20.5078	65.7245	20.5078	64.5419	20.5078	65.8403	20.5078	64.3668	20.5078	65.9236	20.5078	64.1928	20.5078	65.9671	20.5078	64.0194	20.5078	65.9644	20.5078	63.8478	20.5078	65.9114	20.5078	63.6835	20.5078	65.8076	20.5078	63.5363	20.5078	65.6562	20.5078	63.4186	20.5078	65.464	20.5078	63.3415	20.5078	65.2406	20.5078	63.3118	20.5078	64.9968	20.5078	63.3306	20.5078	64.7436	20.5078	63.3952	20.5078	64.4909	20.5078	63.501	20.5078	64.2478	20.5078	63.6435	20.5078	64.0216	20.5078	63.8185
21.9727	66.0066	21.9727	65.8394	21.9727	66.17	21.9727	65.6722	21.9727	66.3246	21.9727	65.507	21.9727	66.4639	21.9727	65.3438	21.9727	66.5805	21.9727	65.1806	21.9727	66.666	21.9727	65.0141	21.9727	66.7125	21.9727	64.8414	21.9727	66.713	21.9727	64.6633	21.9727	66.663	21.9727	64.4862	21.9727	66.5617	21.9727	64.323	21.9727	66.4125	21.9727	64.19	21.9727	66.2227	21.9727	64.1017	21.9727	66.0021	21.9727	64.0666	21.9727	65.7618	21.9727	64.0854	21.9727	65.5125	21.9727	64.154	21.9727	65.2637	21.9727	64.2658	21.9727	65.0233	21.9727	64.4141	21.9727	64.798	21.9727	64.5932
23.4375	66.8019	23.4375	66.6375	23.4375	66.9581	23.4375	66.468	23.4375	67.1014	23.4375	66.2949	23.4375	67.2261	23.4375	66.1178	23.4375	67.3251	23.4375	65.9349	23.4375	67.3909	23.4375	65.7434	23.4375	67.4158	23.4375	65.5417	23.4375	67.3933	23.4375	65.332	23.4375	67.3192	23.4375	65.1224	23.4375	67.193	23.4375	64.9277	23.4375	67.0185	23.4375	64.7654	23.4375	66.8035	23.4375	64.6514	23.4375	66.5589	23.4375	64.5943	23.4375	66.2967	23.4375	64.5955	23.4375	66.0287	23.4375	64.6507	23.4375	65.7651	23.4375	64.7532	23.4375	65.5139	23.4375	64.8964	23.4375	65.2819	23.4375	65.0744
24.9023	67.6056	24.9023	67.4372	24.9023	67.7624	24.9023	67.2605	24.9023	67.903	24.9023	67.0772	24.9023	68.0218	24.9023	66.8877	24.9023	68.112	24.9023	66.6904	24.9023	68.1665	24.9023	66.4834	24.9023	68.1782	24.9023	66.2655	24.9023	68.1414	24.9023	66.0396	24.9023	68.0524	24.9023	65.8144	24.9023	67.9114	24.9023	65.6049	24.9023	67.7226	24.9023	65.4292	24.9023	67.4942	24.9023	65.3032	24.9023	67.2371	24.9023	65.2364	24.9023	66.9636	24.9023	65.2303	24.9023	66.6856	24.9023	65.2807	24.9023	66.4132	24.9023	65.3812	24.9023	66.1547	24.9023	65.5247	24.9023	65.9168	24.9023	65.7051
26.3672	68.6983	26.3672	68.5509	26.3672	68.8335	26.3672	68.3944	26.3672	68.9522	26.3672	68.2308	26.3672	69.0493	26.3672	68.0603	26.3672	69.1189	26.3672	67.8821	26.3672	69.1549	26.3672	67.6947	26.3672	69.1511	26.3672	67.4971	26.3672	69.1032	26.3672	67.292	26.3672	69.0086	26.3672	67.0865	26.3672	68.8683	26.3672	66.8936	26.3672	68.6868	26.3672	66.7286	26.3672	68.4722	26.3672	66.6054	26.3672	68.2349	26.3672	66.5328	26.3672	67.9861	26.3672	66.513	26.3672	67.7367	26.3672	66.5435	26.3672	67.4955	26.3672	66.6194	26.3672	67.2696	26.3672	66.7349	26.3672	67.0645	26.3672	66.8848
27.832	69.4043	27.832	69.2532	27.832	69.542	27.832	69.0921	27.832	69.6622	27.832	68.9229	27.832	69.7599	27.832	68.7464	27.832	69.8294	27.832	68.5623	27.832	69.8649	27.832	68.3701	27.832	69.8609	27.832	68.17	27.832	69.8132	27.832	67.9661	27.832	69.7199	27.832	67.7669	27.832	69.582	27.832	67.5856	27.832	69.4045	27.832	67.437	27.832	69.1951	27.832	67.3326	27.832	68.9643	27.832	67.2785	27.832	68.7232	27.832	67.2744	27.832	68.4821	27.832	67.3159	27.832	68.2497	27.832	67.3976	27.832	68.0324	27.832	67.5141	27.832	67.835	27.832	67.6611
29.2969	70.0336	29.2969	69.8796	29.2969	70.1735	29.2969	69.7146	29.2969	70.2956	29.2969	69.5403	29.2969	70.3951	29.2969	69.3578	29.2969	70.4669	29.2969	69.167	29.2969	70.5053	29.2969	68.9681	29.2969	70.5051	29.2969	68.7626	29.2969	70.4621	29.2969	68.5551	29.2969	70.3742	29.2969	68.3548	29.2969	70.2423	29.2969	68.1747	29.2969	70.0709	29.2969	68.0289	29.2969	69.8673	29.2969	67.9286	29.2969	69.6412	29.2969	67.8792	29.2969	69.4028	29.2969	67.8811	29.2969	69.1617	29.2969	67.9306	29.2969	68.926	29.2969	68.0222	29.2969	68.7021	29.2969	68.1504	29.2969	68.4952	29.2969	68.3097
30.7617	70.6691	30.7617	70.5248	30.7617	70.796	30.7617	70.3655	30.7617	70.9023	30.7617	70.193	30.7617	70.9841	30.7617	70.0081	30.7617	71.037	30.7617	69.8114	30.7617	71.0566	30.7617	69.6041	30.7617	71.0389	30.7617	69.3893	30.7617	70.9811	30.7617	69.174	30.7617	70.8823	30.7617	68.9697	30.7617	70.7446	30.7617	68.7911	30.7617	70.5726	30.7617	68.6524	30.7617	70.374	30.7617	68.5631	30.7617	70.1578	30.7617	68.5253	30.7617	69.9333	30.7617	68.5356	30.7617	69.7094	30.7617	68.5875	30.7617	69.4929	30.7617	68.6747	30.7617	69.2893	30.7617	68.7922	30.7617	69.1025	30.7617	68.9359
32.2266	71.6114	32.2266	71.4735	32.2266	71.731	32.2266	71.3195	32.2266	71.8292	32.2266	71.1511	32.2266	71.9024	32.2266	70.9693	32.2266	71.9468	32.2266	70.7746	32.2266	71.9583	32.2266	70.568	32.2266	71.9332	32.2266	70.3521	32.2266	71.8692	32.2266	70.1331	32.2266	71.7658	32.2266	69.922	32.2266	71.6253	32.2266	69.7332	32.2266	71.4526	32.2266	69.5818	32.2266	71.2549	32.2266	69.479	32.2266	71.0409	32.2266	69.4293	32.2266	70.8194	32.2266	69.4308	32.2266	70.5982	32.2266	69.4777	32.2266	70.3838	32.2266	69.5632	32.2266	70.1811	32.2266	69.6811	32.2266	69.994	32.2266	69.8262
33.6914	72.1945	33.6914	72.06	33.6914	72.3088	33.6914	71.9077	33.6914	72.4002	33.6914	71.7394	33.6914	72.4655	33.6914	71.5563	33.6914	72.501	33.6914	71.3596	33.6914	72.5033	33.6914	71.1513	33.6914	72.4694	33.6914	70.9349	33.6914	72.3977	33.6914	70.7176	33.6914	72.2885	33.6914	70.5108	33.6914	72.1446	33.6914	70.3285	33.6914	71.9712	33.6914	70.1846	33.6914	71.7757	33.6914	70.0884	33.6914	71.5665	33.6914	70.0427	33.6914	71.352	33.6914	70.0445	33.6914	71.1396	33.6914	70.0882	33.6914	70.9353	33.6914	70.1673	33.6914	70.7435	33.6914	70.2764	33.6914	70.5678	33.6914	70.4111
35.1562	72.9272	35.1562	72.8085	35.1562	73.0215	35.1562	72.6674	35.1562	73.0889	35.1562	72.5055	35.1562	73.1266	35.1562	72.3241	35.1562	73.1316	35.1562	72.1246	35.1562	73.1012	35.1562	71.9096	35.1562	73.0337	35.1562	71.6838	35.1562	72.9293	35.1562	71.4556	35.1562	72.7908	35.1562	71.2375	35.1562	72.6239	35.1562	71.0444	35.1562	72.4367	35.1562	70.8902	35.1562	72.238	35.1562	70.7835	35.1562	72.036	35.1562	70.7263	35.1562	71.8371	35.1562	70.7152	35.1562	71.646	35.1562	70.7441	35.1562	71.4657	35.1562	70.8067	35.1562	71.2984	35.1562	70.8974	35.1562	71.1463	35.1562	71.0117
36.6211	73.6472	36.6211	73.5106	36.6211	73.7575	36.6211	73.35	36.6211	73.839	36.6211	73.1677	36.6211	73.8888	36.6211	72.9659	36.6211	73.9039	36.6211	72.7473	36.6211	73.8818	36.6211	72.5163	36.6211	73.8206	36.6211	72.2794	36.6211	73.7207	36.6211	72.0468	36.6211	73.5848	36.6211	71.8321	36.6211	73.4188	36.6211	71.6501	36.6211	73.231	36.6211	71.5133	36.6211	73.0307	36.6211	71.4283	36.6211	72.8266	36.6211	71.3946	36.6211	72.6252	36.6211	71.4065	36.6211	72.431	36.6211	71.4567	36.6211	72.2467	36.6211	71.5377	36.6211	72.0741	36.6211	71.6438	36.6211	71.9148	36.6211	71.7705
38.0859	74.3886	38.0859	74.2555	38.0859	74.4944	38.0859	74.0972	38.0859	74.5707	38.0859	73.9156	38.0859	74.6151	38.0859	73.7131	38.0859	74.6254	38.0859	73.4925	38.0859	74.5994	38.0859	73.2583	38.0859	74.5358	38.0859	73.0174	38.0859	74.435	38.0859	72.7804	38.0859	74.2995	38.0859	72.5612	38.0859	74.1348	38.0859	72.3754	38.0859	73.9485	38.0859	72.2358	38.0859	73.7495	38.0859	72.1489	38.0859	73.5462	38.0859	72.1142	38.0859	73.3452	38.0859	72.1258	38.0859	73.1511	38.0859	72.1758	38.0859	72.9666	38.0859	72.2568	38.0859	72.7938	38.0859	72.3629	38.0859	72.6342	38.0859	72.4898
39.5508	74.8203	39.5508	74.6997	39.5508	74.9132	39.5508	74.5531	39.5508	74.9766	39.5508	74.3823	39.5508	75.0087	39.5508	74.1894	39.5508	75.0078	39.5508	73.9775	39.5508	74.9727	39.5508	73.7507	39.5508	74.9029	39.5508	73.5159	39.5508	74.7998	39.5508	73.2833	39.5508	74.6664	39.5508	73.0664	39.5508	74.5082	39.5508	72.8801	39.5508	74.3322	39.5508	72.7371	39.5508	74.1458	39.5508	72.6444	39.5508	73.9558	39.5508	72.6026	39.5508	73.7673	39.5508	72.6069	39.5508	73.584	39.5508	72.6502	39.5508	73.4084	39.5508	72.7255	39.5508	73.2426	39.5508	72.8268	39.5508	73.0887	39.5508	72.9491
41.0156	75.5124	41.0156	75.3956	41.0156	75.601	41.0156	75.2523	41.0156	75.66	41.0156	75.0843	41.0156	75.688	41.0156	74.894	41.0156	75.6841	41.0156	74.6847	41.0156	75.6476	41.0156	74.4615	41.0156	75.5789	41.0156	74.2322	41.0156	75.4794	41.0156	74.0085	41.0156	75.3523	41.0156	73.8048	41.0156	75.2027	41.0156	73.6362	41.0156	75.0368	41.0156	73.5139	41.0156	74.8615	41.0156	73.4422	41.0156	74.6832	41.0156	73.4181	41.0156	74.5073	41.0156	73.4346	41.0156	74.3377	41.0156	73.4833	41.0156	74.1769	41.0156	73.5573	41.0156	74.0266	41.0156	73.6516	41.0156	73.8881	41.0156	73.7626
42.4805	76.0291	42.4805	75.9302	42.4805	76.0967	42.4805	75.8014	42.4805	76.1318	42.4805	75.6443	42.4805	76.1335	42.4805	75.4609	42.4805	76.1012	42.4805	75.2543	42.4805	76.035	42.4805	75.0289	42.4805	75.9363	42.4805	74.7922	42.4805	75.8083	42.4805	74.5549	42.4805	75.656	42.4805	74.3313	42.4805	75.4863	42.4805	74.1367	42.4805	75.3069	42.4805	73.9841	42.4805	75.1249	42.4805	73.8802	42.4805	74.9459	42.4805	73.8251	42.4805	74.7734	42.4805	73.8136	42.4805	74.6096	42.4805	73.8384	42.4805	74.4558	42.4805	73.8926	42.4805	74.3134	42.4805	73.9708	42.4805	74.1838	42.4805	74.0688
43.9453	76.5624	43.9453	76.4576	43.9453	76.6351	43.9453	76.3224	43.9453	76.6744	43.9453	76.159	43.9453	76.6793	43.9453	75.9703	43.9453	76.6491	43.9453	75.7601	43.9453	76.5843	43.9453	75.5343	43.9453	76.4864	43.9453	75.3017	43.9453	76.3588	43.9453	75.074	43.9453	76.2073	43.9453	74.8656	43.9453	76.0394	43.9453	74.6909	43.9453	75.8634	43.9453	74.5605	43.9453	75.6871	43.9453	74.4781	43.9453	75.5164	43.9453	74.4413	43.9453	75.3544	43.9453	74.4431	43.9453	75.2025	43.9453	74.4761	43.9453	75.0612	43.9453	74.5336	43.9453	74.9305	43.9453	74.6108	43.9453	74.8112	43.9453	74.704
45.4102	77.0199	45.4102	76.911	45.4102	77.0961	45.4102	76.7705	45.4102	77.1386	45.4102	76.6003	45.4102	77.1469	45.4102	76.4032	45.4102	77.1211	45.4102	76.1832	45.4102	77.0616	45.4102	75.9468	45.4102	76.9702	45.4102	75.7039	45.4102	76.8499	45.4102	75.4678	45.4102	76.7057	45.4102	75.2548	45.4102	76.5442	45.4102	75.081	45.4102	76.3732	45.4102	74.9576	45.4102	76.2001	45.4102	74.8878	45.4102	76.0309	45.4102	74.8673	45.4102	75.8692	45.4102	74.887	45.4102	75.7167	45.4102	74.9373	45.4102	75.5738	45.4102	75.0102	45.4102	75.4405	45.4102	75.0999	45.4102	75.3167	45.4102	75.2028
46.875	77.4923	46.875	77.3949	46.875	77.553	46.875	77.2613	46.875	77.5775	46.875	77.0924	46.875	77.5665	46.875	76.8905	46.875	77.5215	46.875	76.6593	46.875	77.4448	46.875	76.4056	46.875	77.3396	46.875	76.1401	46.875	77.2103	46.875	75.8782	46.875	77.0628	46.875	75.639	46.875	76.9034	46.875	75.4419	46.875	76.7389	46.875	75.3013	46.875	76.5748	46.875	75.2223	46.875	76.4149	46.875	75.2004	46.875	76.261	46.875	75.2252	46.875	76.1135	46.875	75.2848	46.875	75.9721	46.875	75.3691	46.875	75.8366	46.875	75.4707	46.875	75.707	46.875	75.5844
48.3398	78.0004	48.3398	77.9138	48.3398	78.0505	48.3398	77.7896	48.3398	78.0657	48.3398	77.6275	48.3398	78.0487	48.3398	77.4281	48.3398	78.0027	48.3398	77.1941	48.3398	77.932	48.3398	76.9309	48.3398	77.8418	48.3398	76.6492	48.3398	77.7376	48.3398	76.3656	48.3398	77.625	48.3398	76.1026	48.3398	77.5087	48.3398	75.8854	48.3398	77.3915	48.3398	75.7347	48.3398	77.2741	48.3398	75.661	48.3398	77.1548	48.3398	75.6619	48.3398	77.0309	48.3398	75.7252	48.3398	76.8995	48.3398	75.8342	48.3398	76.759	48.3398	75.9728	48.3398	76.6093	48.3398	76.1279	48.3398	76.4519	48.3398	76.2899
51.2695	78.9346	51.2695	78.8587	51.2695	78.9716	51.2695	78.7439	51.2695	78.9706	51.2695	78.5918	51.2695	78.934	51.2695	78.4053	51.2695	78.8653	51.2695	78.1894	51.2695	78.7691	51.2695	77.952	51.2695	78.6519	51.2695	77.7037	51.2695	78.521	51.2695	77.4585	51.2695	78.3845	51.2695	77.2329	51.2695	78.2499	51.2695	77.0435	51.2695	78.1226	51.2695	76.904	51.2695	78.0049	51.2695	76.822	51.2695	77.8957	51.2695	76.7975	51.2695	77.7911	51.2695	76.8239	51.2695	77.6867	51.2695	76.8909	51.2695	77.5786	51.2695	76.9867	51.2695	77.4647	51.2695	77.1001	51.2695	77.345	51.2695	77.2219
52.7344	79.4939	52.7344	79.43	52.7344	79.5157	52.7344	79.3251	52.7344	79.496	52.7344	79.1815	52.7344	79.4369	52.7344	79.0034	52.7344	79.3421	52.7344	78.7971	52.7344	79.217	52.7344	78.5713	52.7344	79.0692	52.7344	78.3371	52.7344	78.908	52.7344	78.1081	52.7344	78.7439	52.7344	77.8987	52.7344	78.5869	52.7344	77.7224	52.7344	78.4445	52.7344	77.5889	52.7344	78.3201	52.7344	77.5023	52.7344	78.213	52.7344	77.4615	52.7344	78.1189	52.7344	77.4607	52.7344	78.0327	52.7344	77.4924	52.7344	77.9496	52.7344	77.5479	52.7344	77.8667	52.7344	77.6191	52.7344	77.7828	52.7344	77.6992
54.1992	79.8909	54.1992	79.829	54.1992	79.909	54.1992	79.7249	54.1992	79.8834	54.1992	79.5822	54.1992	79.8156	54.1992	79.4061	54.1992	79.7094	54.1992	79.2042	54.1992	79.5705	54.1992	78.9862	54.1992	79.4073	54.1992	78.7639	54.1992	79.2302	54.1992	78.5502	54.1992	79.0514	54.1992	78.3578	54.1992	78.8826	54.1992	78.197	54.1992	78.7328	54.1992	78.074	54.1992	78.606	54.1992	77.9902	54.1992	78.5015	54.1992	77.9435	54.1992	78.4145	54.1992	77.9291	54.1992	78.3392	54.1992	77.9413	54.1992	78.2702	54.1992	77.9741	54.1992	78.2043	54.1992	78.0214	54.1992	78.14	54.1992	78.0781
55.6641	80.2425	55.6641	80.1466	55.6641	80.2887	55.6641	80.0032	55.6641	80.2849	55.6641	79.8169	55.6641	80.2329	55.6641	79.5948	55.6641	80.1365	55.6641	79.3475	55.6641	80.0016	55.6641	79.0886	55.6641	79.837	55.6641	78.8348	55.6641	79.654	55.6641	78.604	55.6641	79.4657	55.6641	78.4114	55.6641	79.2852	55.6641	78.267	55.6641	79.123	55.6641	78.1729	55.6641	78.9842	55.6641	78.1246	55.6641	78.8683	55.6641	78.114	55.6641	78.7704	55.6641	78.1327	55.6641	78.6841	55.6641	78.1732	55.6641	78.6037	55.6641	78.2296	55.6641	78.5252	55.6641	78.2967	55.6641	78.4473	55.6641	78.3704
58.5938	81.4634	58.5938	81.3607	58.5938	81.5096	58.5938	81.2027	58.5938	81.5004	58.5938	80.9929	58.5938	81.4389	58.5938	80.7378	58.5938	81.3302	58.5938	80.4478	58.5938	81.182	58.5938	80.1378	58.5938	81.0043	58.5938	79.8272	58.5938	80.8095	58.5938	79.5392	58.5938	80.6115	58.5938	79.2966	58.5938	80.4239	58.5938	79.1173	58.5938	80.2574	58.5938	79.0093	58.5938	80.1167	58.5938	78.9696	58.5938	80.0008	58.5938	78.9865	58.5938	79.9032	58.5938	79.0452	58.5938	79.8157	58.5938	79.1311	58.5938	79.7306	58.5938	79.2321	58.5938	79.642	58.5938	79.3391	58.5938	79.5472	58.5938	79.4455
60.0586	82.0033	60.0586	81.9049	60.0586	82.0437	60.0586	81.7498	60.0586	82.0271	60.0586	81.5419	60.0586	81.9566	60.0586	81.288	60.0586	81.8376	60.0586	80.9988	60.0586	81.678	60.0586	80.6889	60.0586	81.4884	60.0586	80.3776	60.0586	81.282	60.0586	80.0871	60.0586	81.0735	60.0586	79.8396	60.0586	80.8776	60.0586	79.6525	60.0586	80.7052	60.0586	79.5344	60.0586	80.5616	60.0586	79.4833	60.0586	80.4454	60.0586	79.4892	60.0586	80.3498	60.0586	79.5383	60.0586	80.2658	60.0586	79.6163	60.0586	80.1851	60.0586	79.711	60.0586	80.1014	60.0586	79.8127	60.0586	80.0113	60.0586	79.9144
62.9883	82.9185	62.9883	82.8241	62.9883	82.9522	62.9883	82.6708	62.9883	82.9262	62.9883	82.4631	62.9883	82.8438	62.9883	82.2089	62.9883	82.7109	62.9883	81.9201	62.9883	82.5366	62.9883	81.6128	62.9883	82.3324	62.9883	81.3072	62.9883	82.1129	62.9883	81.0259	62.9883	81.8944	62.9883	80.7903	62.9883	81.6925	62.9883	80.616	62.9883	81.5194	62.9883	80.5092	62.9883	81.3806	62.9883	80.466	62.9883	81.2744	62.9883	80.4752	62.9883	81.1931	62.9883	80.5227	62.9883	81.1267	62.9883	80.5946	62.9883	81.0654	62.9883	80.6793	62.9883	81.0019	62.9883	80.7676	62.9883	80.9316	62.9883	80.8531
64.4531	83.3597	64.4531	83.2683	64.4531	83.3887	64.4531	83.1164	64.4531	83.3564	64.4531	82.9089	64.4531	83.2664	64.4531	82.6539	64.4531	83.1255	64.4531	82.364	64.4531	82.9429	64.4531	82.0558	64.4531	82.7316	64.4531	81.7502	64.4531	82.5069	64.4531	81.4701	64.4531	82.2859	64.4531	81.2369	64.4531	82.0851	64.4531	81.066	64.4531	81.9163	64.4531	80.963	64.4531	81.7849	64.4531	80.9234	64.4531	81.6879	64.4531	80.9358	64.4531	81.6167	64.4531	80.9857	64.4531	81.5602	64.4531	81.0592	64.4531	81.5081	64.4531	81.1442	64.4531	81.4523	64.4531	81.2314	64.4531	81.3882	64.4531	81.3141
67.3828	84.2661	67.3828	84.1742	67.3828	84.2905	67.3828	84.0168	67.3828	84.2483	67.3828	83.7996	67.3828	84.1437	67.3828	83.5321	67.3828	83.9842	67.3828	83.2283	67.3828	83.7805	67.3828	82.9069	67.3828	83.5473	67.3828	82.5909	67.3828	83.3023	67.3828	82.3051	67.3828	83.0651	67.3828	82.0718	67.3828	82.8544	67.3828	81.906	67.3828	82.6835	67.3828	81.8116	67.3828	82.5574	67.3828	81.7821	67.3828	82.4721	67.3828	81.8038	67.3828	82.4165	67.3828	81.8609	67.3828	82.3773	67.3828	81.9385	67.3828	82.342	67.3828	82.0244	67.3828	82.3014	67.3828	82.1089	67.3828	82.2499	67.3828	82.1854
