"SPL Horizontal"
"On-Axis"		"10°"		"-10°"		"20°"		"-20°"		"30°"		"-30°"		"40°"		"-40°"		"50°"		"-50°"		"60°"		"-60°"		"70°"		"-70°"		"80°"		"-80°"		"90°"		"-90°"		"100°"		"-100°"		"110°"		"-110°"		"120°"		"-120°"		"130°"		"-130°"		"140°"		"-140°"		"150°"		"-150°"		"160°"		"-160°"		"170°"		"-170°"		"180°"
"Frequency / Hz"	"Sound Pressure Level / dB (re 20 µPa/V)  [2.83  V @ 1. m]"	"Frequency / Hz"	"Sound Pressure Level / dB (re 20 µPa/V)  [2.83  V @ 1. m]"	"Frequency / Hz"	"Sound Pressure Level / dB (re 20 µPa/V)  [2.83  V @ 1. m]"	"Frequency / Hz"	"Sound Pressure Level / dB (re 20 µPa/V)  [2.83  V @ 1. m]"	"Frequency / Hz"	"Sound Pressure Level / dB (re 20 µPa/V)  [2.83  V @ 1. m]"	"Frequency / Hz"	"Sound Pressure Level / dB (re 20 µPa/V)  [2.83  V @ 1. m]"	"Frequency / Hz"	"Sound Pressure Level / dB (re 20 µPa/V)  [2.83  V @ 1. m]"	"Frequency / Hz"	"Sound Pressure Level / dB (re 20 µPa/V)  [2.83  V @ 1. m]"	"Frequency / Hz"	"Sound Pressure Level / dB (re 20 µPa/V)  [2.83  V @ 1. m]"	"Frequency / Hz"	"Sound Pressure Level / dB (re 20 µPa/V)  [2.83  V @ 1. m]"	"Frequency / Hz"	"Sound Pressure Level / dB (re 20 µPa/V)  [2.83  V @ 1. m]"	"Frequency / Hz"	"Sound Pressure Level / dB (re 20 µPa/V)  [2.83  V @ 1. m]"	"Frequency / Hz"	"Sound Pressure Level / dB (re 20 µPa/V)  [2.83  V @ 1. m]"	"Frequency / Hz"	"Sound Pressure Level / dB (re 20 µPa/V)  [2.83  V @ 1. m]"	"Frequency / Hz"	"Sound Pressure Level / dB (re 20 µPa/V)  [2.83  V @ 1. m]"	"Frequency / Hz"	"Sound Pressure Level / dB (re 20 µPa/V)  [2.83  V @ 1. m]"	"Frequency / Hz"	"Sound Pressure Level / dB (re 20 µPa/V)  [2.83  V @ 1. m]"	"Frequency / Hz"	"Sound Pressure Level / dB (re 20 µPa/V)  [2.83  V @ 1. m]"	"Frequency / Hz"	"Sound Pressure Level / dB (re 20 µPa/V)  [2.83  V @ 1. m]"	"Frequency / Hz"	"Sound Pressure Level / dB (re 20 µPa/V)  [2.83  V @ 1. m]"	"Frequency / Hz"	"Sound Pressure Level / dB (re 20 µPa/V)  [2.83  V @ 1. m]"	"Frequency / Hz"	"Sound Pressure Level / dB (re 20 µPa/V)  [2.83  V @ 1. m]"	"Frequency / Hz"	"Sound Pressure Level / dB (re 20 µPa/V)  [2.83  V @ 1. m]"	"Frequency / Hz"	"Sound Pressure Level / dB (re 20 µPa/V)  [2.83  V @ 1. m]"	"Frequency / Hz"	"Sound Pressure Level / dB (re 20 µPa/V)  [2.83  V @ 1. m]"	"Frequency / Hz"	"Sound Pressure Level / dB (re 20 µPa/V)  [2.83  V @ 1. m]"	"Frequency / Hz"	"Sound Pressure Level / dB (re 20 µPa/V)  [2.83  V @ 1. m]"	"Frequency / Hz"	"Sound Pressure Level / dB (re 20 µPa/V)  [2.83  V @ 1. m]"	"Frequency / Hz"	"Sound Pressure Level / dB (re 20 µPa/V)  [2.83  V @ 1. m]"	"Frequency / Hz"	"Sound Pressure Level / dB (re 20 µPa/V)  [2.83  V @ 1. m]"	"Frequency / Hz"	"Sound Pressure Level / dB (re 20 µPa/V)  [2.83  V @ 1. m]"	"Frequency / Hz"	"Sound Pressure Level / dB (re 20 µPa/V)  [2.83  V @ 1. m]"	"Frequency / Hz"	"Sound Pressure Level / dB (re 20 µPa/V)  [2.83  V @ 1. m]"	"Frequency / Hz"	"Sound Pressure Level / dB (re 20 µPa/V)  [2.83  V @ 1. m]"	"Frequency / Hz"	"Sound Pressure Level / dB (re 20 µPa/V)  [2.83  V @ 1. m]"	"Frequency / Hz"	"Sound Pressure Level / dB (re 20 µPa/V)  [2.83  V @ 1. m]"
20.5078	60.5253	20.5078	60.2076	20.5078	60.6318	20.5078	59.6648	20.5078	60.5361	20.5078	58.8834	20.5078	60.2413	20.5078	57.8693	20.5078	59.7464	20.5078	56.7081	20.5078	59.0529	20.5078	55.7162	20.5078	58.1852	20.5078	55.5534	20.5078	57.2461	20.5078	56.6592	20.5078	56.5255	20.5078	58.5768	20.5078	56.5305	20.5078	60.6453	20.5078	57.5625	20.5078	62.5461	20.5078	59.2942	20.5078	64.1841	20.5078	61.2063	20.5078	65.5395	20.5078	62.9993	20.5078	66.609	20.5078	64.558	20.5078	67.3904	20.5078	65.8444	20.5078	67.8792	20.5078	66.8449	20.5078	68.0707	20.5078	67.5524	20.5078	67.9619
21.9727	57.2183	21.9727	57.2017	21.9727	57.1228	21.9727	57.1657	21.9727	56.9014	21.9727	57.2882	21.9727	56.6227	21.9727	57.7898	21.9727	56.4666	21.9727	58.7957	21.9727	56.7177	21.9727	60.2283	21.9727	57.6057	21.9727	61.887	21.9727	59.0806	21.9727	63.5911	21.9727	60.8735	21.9727	65.2309	21.9727	62.7328	21.9727	66.7506	21.9727	64.5154	21.9727	68.1228	21.9727	66.1577	21.9727	69.3307	21.9727	67.6342	21.9727	70.3608	21.9727	68.9327	21.9727	71.1999	21.9727	70.0441	21.9727	71.8352	21.9727	70.9585	21.9727	72.255	21.9727	71.665	21.9727	72.4506	21.9727	72.1538	21.9727	72.417
23.4375	65.8807	23.4375	65.7921	23.4375	65.9265	23.4375	65.6777	23.4375	65.9293	23.4375	65.5741	23.4375	65.9047	23.4375	65.5396	23.4375	65.8844	23.4375	65.648	23.4375	65.9169	23.4375	65.9698	23.4375	66.063	23.4375	66.5412	23.4375	66.3829	23.4375	67.3438	23.4375	66.9144	23.4375	68.3124	23.4375	67.6535	23.4375	69.3635	23.4375	68.5542	23.4375	70.4198	23.4375	69.5465	23.4375	71.4199	23.4375	70.5577	23.4375	72.3175	23.4375	71.5249	23.4375	73.0779	23.4375	72.398	23.4375	73.6742	23.4375	73.1385	23.4375	74.0862	23.4375	73.717	23.4375	74.3001	23.4375	74.112	23.4375	74.3087
24.9023	67.3004	24.9023	67.2446	24.9023	67.3237	24.9023	67.1754	24.9023	67.3119	24.9023	67.1302	24.9023	67.2774	24.9023	67.1637	24.9023	67.2487	24.9023	67.3408	24.9023	67.2701	24.9023	67.7178	24.9023	67.3985	24.9023	68.3173	24.9023	67.6917	24.9023	69.116	24.9023	68.1883	24.9023	70.0542	24.9023	68.8898	24.9023	71.0586	24.9023	69.7576	24.9023	72.0617	24.9023	70.7278	24.9023	73.0083	24.9023	71.7304	24.9023	73.8553	24.9023	72.7029	24.9023	74.5689	24.9023	73.5933	24.9023	75.122	24.9023	74.3604	24.9023	75.4933	24.9023	74.9718	24.9023	75.6679	24.9023	75.403	24.9023	75.6378
26.3672	70.7826	26.3672	70.7501	26.3672	70.7927	26.3672	70.7095	26.3672	70.7773	26.3672	70.6872	26.3672	70.7443	26.3672	70.7211	26.3672	70.7128	26.3672	70.8566	26.3672	70.714	26.3672	71.1364	26.3672	70.7893	26.3672	71.5864	26.3672	70.9848	26.3672	72.2036	26.3672	71.3392	26.3672	72.9558	26.3672	71.8694	26.3672	73.7918	26.3672	72.5609	26.3672	74.6544	26.3672	73.3715	26.3672	75.4903	26.3672	74.2432	26.3672	76.2535	26.3672	75.1156	26.3672	76.9055	26.3672	75.9338	26.3672	77.4148	26.3672	76.6516	26.3672	77.7567	26.3672	77.2319	26.3672	77.9139	26.3672	77.6468	26.3672	77.8772
27.832	74.3357	27.832	74.359	27.832	74.3239	27.832	74.4023	27.832	74.3234	27.832	74.4816	27.832	74.3418	27.832	74.6188	27.832	74.3948	27.832	74.8383	27.832	74.5041	27.832	75.1613	27.832	74.6952	27.832	75.5999	27.832	74.9917	27.832	76.1516	27.832	75.409	27.832	76.7981	27.832	75.948	27.832	77.5089	27.832	76.593	27.832	78.2463	27.832	77.3135	27.832	78.9703	27.832	78.0702	27.832	79.6423	27.832	78.8201	27.832	80.2271	27.832	79.5215	27.832	80.6935	27.832	80.136	27.832	81.0162	27.832	80.6308	27.832	81.1765	27.832	80.9796	27.832	81.1646
29.2969	77.6367	29.2969	77.64	29.2969	77.6514	29.2969	77.6682	29.2969	77.6832	29.2969	77.7329	29.2969	77.7365	29.2969	77.8503	29.2969	77.8211	29.2969	78.0382	29.2969	77.9503	29.2969	78.3128	29.2969	78.1403	29.2969	78.6837	29.2969	78.4065	29.2969	79.151	29.2969	78.7599	29.2969	79.7026	29.2969	79.2039	29.2969	80.3159	29.2969	79.7311	29.2969	80.9607	29.2969	80.3231	29.2969	81.6024	29.2969	80.9522	29.2969	82.2056	29.2969	81.585	29.2969	82.7366	29.2969	82.1853	29.2969	83.1646	29.2969	82.7176	29.2969	83.4643	29.2969	83.1497	29.2969	83.6174	29.2969	83.455	29.2969	83.6142
30.7617	80.4473	30.7617	80.4697	30.7617	80.4473	30.7617	80.5196	30.7617	80.4685	30.7617	80.6058	30.7617	80.5136	30.7617	80.7401	30.7617	80.5895	30.7617	80.9347	30.7617	80.7058	30.7617	81.2009	30.7617	80.8743	30.7617	81.545	30.7617	81.1068	30.7617	81.9665	30.7617	81.4129	30.7617	82.4562	30.7617	81.7967	30.7617	82.9966	30.7617	82.2544	30.7617	83.5632	30.7617	82.7736	30.7617	84.1273	30.7617	83.333	30.7617	84.6576	30.7617	83.9048	30.7617	85.1231	30.7617	84.4566	30.7617	85.4948	30.7617	84.9552	30.7617	85.7484	30.7617	85.3689	30.7617	85.8664	30.7617	85.6705	30.7617	85.8401
32.2266	82.8388	32.2266	82.8685	32.2266	82.8338	32.2266	82.9265	32.2266	82.8529	32.2266	83.019	32.2266	82.8982	32.2266	83.1539	32.2266	82.9748	32.2266	83.3398	32.2266	83.0901	32.2266	83.5845	32.2266	83.2528	32.2266	83.8928	32.2266	83.472	32.2266	84.2649	32.2266	83.7547	32.2266	84.6948	32.2266	84.1044	32.2266	85.1701	32.2266	84.5183	32.2266	85.6719	32.2266	84.9864	32.2266	86.1762	32.2266	85.4912	32.2266	86.6558	32.2266	86.0086	32.2266	87.0818	32.2266	86.5097	32.2266	87.4266	32.2266	86.9635	32.2266	87.6657	32.2266	87.3401	32.2266	87.7813	32.2266	87.6132	32.2266	87.7638
33.6914	84.1969	33.6914	84.2237	33.6914	84.1957	33.6914	84.2787	33.6914	84.2195	33.6914	84.3662	33.6914	84.27	33.6914	84.4921	33.6914	84.3506	33.6914	84.6625	33.6914	84.4665	33.6914	84.8835	33.6914	84.624	33.6914	85.1588	33.6914	84.8293	33.6914	85.4891	33.6914	85.0877	33.6914	85.8703	33.6914	85.4016	33.6914	86.2926	33.6914	85.7692	33.6914	86.7409	33.6914	86.1831	33.6914	87.1946	33.6914	86.6294	33.6914	87.6294	33.6914	87.0881	33.6914	88.0187	33.6914	87.5344	33.6914	88.3363	33.6914	87.9405	33.6914	88.5589	33.6914	88.2784	33.6914	88.6689	33.6914	88.5235	33.6914	88.657
35.1562	84.4533	35.1562	84.4823	35.1562	84.4514	35.1562	84.5404	35.1562	84.4762	35.1562	84.6304	35.1562	84.5287	35.1562	84.7562	35.1562	84.611	35.1562	84.9222	35.1562	84.7266	35.1562	85.132	35.1562	84.8795	35.1562	85.3883	35.1562	85.074	35.1562	85.6909	35.1562	85.3135	35.1562	86.0364	35.1562	85.5997	35.1562	86.4169	35.1562	85.9311	35.1562	86.8199	35.1562	86.302	35.1562	87.2279	35.1562	86.7014	35.1562	87.6196	35.1562	87.1129	35.1562	87.9711	35.1562	87.5153	35.1562	88.2582	35.1562	87.8837	35.1562	88.4591	35.1562	88.1926	35.1562	88.557	35.1562	88.4185	35.1562	88.5433
36.6211	84.2284	36.6211	84.2584	36.6211	84.2259	36.6211	84.3173	36.6211	84.2506	36.6211	84.4069	36.6211	84.3028	36.6211	84.5296	36.6211	84.384	36.6211	84.6882	36.6211	84.4961	36.6211	84.885	36.6211	84.6417	36.6211	85.1215	36.6211	84.8235	36.6211	85.3976	36.6211	85.0441	36.6211	85.7103	36.6211	85.3045	36.6211	86.0535	36.6211	85.6038	36.6211	86.4167	36.6211	85.9375	36.6211	86.7851	36.6211	86.297	36.6211	87.1398	36.6211	86.6684	36.6211	87.4591	36.6211	87.0332	36.6211	87.7204	36.6211	87.3691	36.6211	87.9031	36.6211	87.6524	36.6211	87.9914	36.6211	87.8608	36.6211	87.9771
38.0859	83.946	38.0859	83.9783	38.0859	83.9405	38.0859	84.0383	38.0859	83.9615	38.0859	84.127	38.0859	84.0091	38.0859	84.2459	38.0859	84.0841	38.0859	84.3966	38.0859	84.1877	38.0859	84.5804	38.0859	84.3214	38.0859	84.7981	38.0859	84.487	38.0859	85.0491	38.0859	84.6862	38.0859	85.3311	38.0859	84.92	38.0859	85.6386	38.0859	85.1875	38.0859	85.9631	38.0859	85.4854	38.0859	86.2917	38.0859	85.8069	38.0859	86.6078	38.0859	86.1405	38.0859	86.8921	38.0859	86.4701	38.0859	87.1241	38.0859	86.7759	38.0859	87.2848	38.0859	87.0362	38.0859	87.3597	38.0859	87.2301	38.0859	87.3411
39.5508	83.6794	39.5508	83.7154	39.5508	83.6701	39.5508	83.7786	39.5508	83.6874	39.5508	83.8693	39.5508	83.7314	39.5508	83.9882	39.5508	83.8021	39.5508	84.1358	39.5508	83.9003	39.5508	84.3125	39.5508	84.0266	39.5508	84.5184	39.5508	84.1819	39.5508	84.7523	39.5508	84.3672	39.5508	85.0118	39.5508	84.5828	39.5508	85.2923	39.5508	84.8279	39.5508	85.5861	39.5508	85.0997	39.5508	85.8822	39.5508	85.3924	39.5508	86.1661	39.5508	85.6964	39.5508	86.4205	39.5508	85.9977	39.5508	86.6269	39.5508	86.2786	39.5508	86.7681	39.5508	86.5196	39.5508	86.8308	39.5508	86.7012	39.5508	86.8081
41.0156	83.5718	41.0156	83.6111	41.0156	83.5585	41.0156	83.6763	41.0156	83.5711	41.0156	83.7669	41.0156	83.6097	41.0156	83.8828	41.0156	83.6739	41.0156	84.0233	41.0156	83.7636	41.0156	84.188	41.0156	83.8787	41.0156	84.3759	41.0156	84.0193	41.0156	84.5859	41.0156	84.1855	41.0156	84.8156	41.0156	84.3774	41.0156	85.0612	41.0156	84.5942	41.0156	85.3167	41.0156	84.8337	41.0156	85.5734	41.0156	85.0916	41.0156	85.8193	41.0156	85.3602	41.0156	86.0397	41.0156	85.6281	41.0156	86.2183	41.0156	85.8799	41.0156	86.3394	41.0156	86.098	41.0156	86.3905	41.0156	86.2647	41.0156	86.3651
42.4805	83.3488	42.4805	83.3888	42.4805	83.335	42.4805	83.4548	42.4805	83.3475	42.4805	83.546	42.4805	83.386	42.4805	83.6616	42.4805	83.4499	42.4805	83.8004	42.4805	83.5386	42.4805	83.9612	42.4805	83.6515	42.4805	84.1427	42.4805	83.7881	42.4805	84.3431	42.4805	83.9479	42.4805	84.56	42.4805	84.1305	42.4805	84.79	42.4805	84.3348	42.4805	85.0278	42.4805	84.5591	42.4805	85.2657	42.4805	84.7994	42.4805	85.493	42.4805	85.0493	42.4805	85.6962	42.4805	85.2986	42.4805	85.8605	42.4805	85.5336	42.4805	85.9711	42.4805	85.738	42.4805	86.0165	42.4805	85.895	42.4805	85.9907
43.9453	83.2867	43.9453	83.3323	43.9453	83.2672	43.9453	83.4031	43.9453	83.2737	43.9453	83.4979	43.9453	83.3061	43.9453	83.6153	43.9453	83.3636	43.9453	83.7533	43.9453	83.4453	43.9453	83.9101	43.9453	83.5502	43.9453	84.0835	43.9453	83.6773	43.9453	84.2716	43.9453	83.8258	43.9453	84.4716	43.9453	83.9948	43.9453	84.6806	43.9453	84.1832	43.9453	84.8939	43.9453	84.3893	43.9453	85.1049	43.9453	84.6098	43.9453	85.3047	43.9453	84.8391	43.9453	85.4818	43.9453	85.0684	43.9453	85.6231	43.9453	85.2856	43.9453	85.7156	43.9453	85.4761	43.9453	85.7492	43.9453	85.6246	43.9453	85.7183
45.4102	83.3357	45.4102	83.3825	45.4102	83.3137	45.4102	83.4533	45.4102	83.3168	45.4102	83.5467	45.4102	83.3447	45.4102	83.6606	45.4102	83.3968	45.4102	83.793	45.4102	83.4719	45.4102	83.9415	45.4102	83.5687	45.4102	84.1037	45.4102	83.6862	45.4102	84.2773	45.4102	83.823	45.4102	84.4599	45.4102	83.9781	45.4102	84.6484	45.4102	84.1505	45.4102	84.839	45.4102	84.3382	45.4102	85.0261	45.4102	84.5387	45.4102	85.2023	45.4102	84.747	45.4102	85.3576	45.4102	84.9555	45.4102	85.4806	45.4102	85.1536	45.4102	85.5597	45.4102	85.3282	45.4102	85.5856	45.4102	85.4655	45.4102	85.5538
46.875	83.4563	46.875	83.4987	46.875	83.438	46.875	83.5644	46.875	83.4441	46.875	83.6517	46.875	83.4741	46.875	83.7585	46.875	83.5272	46.875	83.8825	46.875	83.602	46.875	84.0209	46.875	83.6966	46.875	84.1711	46.875	83.8095	46.875	84.3306	46.875	83.9389	46.875	84.4968	46.875	84.0834	46.875	84.667	46.875	84.2413	46.875	84.8378	46.875	84.411	46.875	85.0046	46.875	84.5899	46.875	85.1612	46.875	84.7739	46.875	85.2991	46.875	84.9569	46.875	85.4086	46.875	85.1299	46.875	85.4795	46.875	85.282	46.875	85.5038	46.875	85.4012	46.875	85.4773
48.3398	83.604	48.3398	83.6449	48.3398	83.5863	48.3398	83.7079	48.3398	83.5922	48.3398	83.7914	48.3398	83.6211	48.3398	83.8931	48.3398	83.6722	48.3398	84.0102	48.3398	83.7436	48.3398	84.14	48.3398	83.8336	48.3398	84.2796	48.3398	83.9399	48.3398	84.4264	48.3398	84.0607	48.3398	84.5776	48.3398	84.1938	48.3398	84.7309	48.3398	84.3376	48.3398	84.883	48.3398	84.4902	48.3398	85.0302	48.3398	84.6496	48.3398	85.1673	48.3398	84.8123	48.3398	85.2871	48.3398	84.9734	48.3398	85.3813	48.3398	85.1257	48.3398	85.4414	48.3398	85.26	48.3398	85.4603	48.3398	85.366	48.3398	85.4348
51.2695	83.9239	51.2695	83.9687	51.2695	83.9018	51.2695	84.0347	51.2695	83.9026	51.2695	84.1197	51.2695	83.9261	51.2695	84.2211	51.2695	83.971	51.2695	84.3357	51.2695	84.0355	51.2695	84.4598	51.2695	84.1172	51.2695	84.5901	51.2695	84.2136	51.2695	84.7233	51.2695	84.322	51.2695	84.8564	51.2695	84.44	51.2695	84.9867	51.2695	84.5653	51.2695	85.1116	51.2695	84.6961	51.2695	85.2281	51.2695	84.8304	51.2695	85.3327	51.2695	84.9661	51.2695	85.4207	51.2695	85.0999	51.2695	85.4863	51.2695	85.227	51.2695	85.5237	51.2695	85.3406	51.2695	85.528	51.2695	85.4332	51.2695	85.4973
52.7344	84.089	52.7344	84.1404	52.7344	84.0596	52.7344	84.2121	52.7344	84.0528	52.7344	84.3018	52.7344	84.0684	52.7344	84.4065	52.7344	84.1051	52.7344	84.5225	52.7344	84.1612	52.7344	84.6461	52.7344	84.2345	52.7344	84.7735	52.7344	84.3221	52.7344	84.9011	52.7344	84.4214	52.7344	85.0258	52.7344	84.5298	52.7344	85.1447	52.7344	84.6451	52.7344	85.2553	52.7344	84.7655	52.7344	85.3551	52.7344	84.8893	52.7344	85.4414	52.7344	85.015	52.7344	85.5104	52.7344	85.1398	52.7344	85.5578	52.7344	85.26	52.7344	85.5791	52.7344	85.3698	52.7344	85.5705	52.7344	85.4624	52.7344	85.5309
54.1992	84.3474	54.1992	84.3993	54.1992	84.3156	54.1992	84.4698	54.1992	84.3045	54.1992	84.5565	54.1992	84.3141	54.1992	84.6563	54.1992	84.3432	54.1992	84.7658	54.1992	84.3903	54.1992	84.8813	54.1992	84.4531	54.1992	84.9989	54.1992	84.529	54.1992	85.115	54.1992	84.6156	54.1992	85.2264	54.1992	84.7105	54.1992	85.3305	54.1992	84.8116	54.1992	85.4249	54.1992	84.9173	54.1992	85.5075	54.1992	85.0266	54.1992	85.5764	54.1992	85.138	54.1992	85.6288	54.1992	85.2496	54.1992	85.6615	54.1992	85.3582	54.1992	85.6711	54.1992	85.4588	54.1992	85.655	54.1992	85.5456	54.1992	85.6125
55.6641	84.7576	55.6641	84.8052	55.6641	84.728	55.6641	84.8694	55.6641	84.7171	55.6641	84.9479	55.6641	84.7247	55.6641	85.0378	55.6641	84.7499	55.6641	85.1356	55.6641	84.7911	55.6641	85.2375	55.6641	84.846	55.6641	85.3398	55.6641	84.9123	55.6641	85.4388	55.6641	84.9874	55.6641	85.5313	55.6641	85.0687	55.6641	85.6146	55.6641	85.1541	55.6641	85.6869	55.6641	85.2418	55.6641	85.7468	55.6641	85.3306	55.6641	85.7935	55.6641	85.4194	55.6641	85.826	55.6641	85.5067	55.6641	85.8432	55.6641	85.5907	55.6641	85.8434	55.6641	85.6683	55.6641	85.8254	55.6641	85.7356	55.6641	85.789
58.5938	85.4458	58.5938	85.475	58.5938	85.4323	58.5938	85.5189	58.5938	85.4349	58.5938	85.5753	58.5938	85.4531	58.5938	85.6417	58.5938	85.4855	58.5938	85.7148	58.5938	85.5303	58.5938	85.791	58.5938	85.5847	58.5938	85.8663	58.5938	85.6457	58.5938	85.9372	58.5938	85.71	58.5938	86.0004	58.5938	85.7745	58.5938	86.0537	58.5938	85.8364	58.5938	86.0959	58.5938	85.8936	58.5938	86.1269	58.5938	85.945	58.5938	86.1476	58.5938	85.9902	58.5938	86.1595	58.5938	86.0297	58.5938	86.1639	58.5938	86.0641	58.5938	86.1618	58.5938	86.0939	58.5938	86.1535	58.5938	86.1191	58.5938	86.1391
60.0586	85.6502	60.0586	85.6731	60.0586	85.6429	60.0586	85.7108	60.0586	85.6515	60.0586	85.7612	60.0586	85.675	60.0586	85.8218	60.0586	85.7121	60.0586	85.8892	60.0586	85.7604	60.0586	85.9597	60.0586	85.8169	60.0586	86.0292	60.0586	85.8785	60.0586	86.094	60.0586	85.9415	60.0586	86.1508	60.0586	86.0027	60.0586	86.1976	60.0586	86.0591	60.0586	86.2332	60.0586	86.1086	60.0586	86.2581	60.0586	86.1502	60.0586	86.2736	60.0586	86.184	60.0586	86.2819	60.0586	86.2108	60.0586	86.2848	60.0586	86.232	60.0586	86.2838	60.0586	86.2488	60.0586	86.2796	60.0586	86.2622	60.0586	86.2724
62.9883	86.0591	62.9883	86.0713	62.9883	86.0632	62.9883	86.099	62.9883	86.0835	62.9883	86.1408	62.9883	86.1188	62.9883	86.1941	62.9883	86.1673	62.9883	86.2557	62.9883	86.2262	62.9883	86.3219	62.9883	86.2923	62.9883	86.3885	62.9883	86.3616	62.9883	86.4515	62.9883	86.43	62.9883	86.5073	62.9883	86.4935	62.9883	86.5531	62.9883	86.5483	62.9883	86.5875	62.9883	86.5921	62.9883	86.6105	62.9883	86.6233	62.9883	86.6236	62.9883	86.6423	62.9883	86.6294	62.9883	86.6506	62.9883	86.6311	62.9883	86.651	62.9883	86.6315	62.9883	86.6468	62.9883	86.6328	62.9883	86.641	62.9883	86.6359
64.4531	86.3421	64.4531	86.3515	64.4531	86.3477	64.4531	86.3749	64.4531	86.3679	64.4531	86.4111	64.4531	86.4018	64.4531	86.4578	64.4531	86.4477	64.4531	86.5118	64.4531	86.503	64.4531	86.5697	64.4531	86.5644	64.4531	86.6276	64.4531	86.6282	64.4531	86.6813	64.4531	86.6902	64.4531	86.7275	64.4531	86.7463	64.4531	86.7633	64.4531	86.7929	64.4531	86.7875	64.4531	86.8272	64.4531	86.8004	64.4531	86.8481	64.4531	86.8038	64.4531	86.8558	64.4531	86.801	64.4531	86.8522	64.4531	86.7959	64.4531	86.8408	64.4531	86.7923	64.4531	86.8256	64.4531	86.793	64.4531	86.8107	64.4531	86.7992
67.3828	86.9318	67.3828	86.9361	67.3828	86.9393	67.3828	86.9515	67.3828	86.9585	67.3828	86.9768	67.3828	86.9885	67.3828	87.01	67.3828	87.0278	67.3828	87.0483	67.3828	87.074	67.3828	87.0884	67.3828	87.1242	67.3828	87.1267	67.3828	87.1745	67.3828	87.1595	67.3828	87.2211	67.3828	87.1834	67.3828	87.2597	67.3828	87.196	67.3828	87.2866	67.3828	87.1963	67.3828	87.2991	67.3828	87.1852	67.3828	87.296	67.3828	87.1655	67.3828	87.2779	67.3828	87.1418	67.3828	87.2476	67.3828	87.1197	67.3828	87.2099	67.3828	87.105	67.3828	87.1708	67.3828	87.1019	67.3828	87.1367	67.3828	87.1126
