"SPL Horizontal"																																																																							
"On-Axis"		"10°"		"-10°"		"20°"		"-20°"		"30°"		"-30°"		"40°"		"-40°"		"50°"		"-50°"		"60°"		"-60°"		"70°"		"-70°"		"80°"		"-80°"		"90°"		"-90°"		"100°"		"-100°"		"110°"		"-110°"		"120°"		"-120°"		"130°"		"-130°"		"140°"		"-140°"		"150°"		"-150°"		"160°"		"-160°"		"170°"		"-170°"		"180°"	
"Frequency [Hz]"	"Sound Pessure Level [dB]  / [2.83V 1m] "	"Frequency [Hz]"	"Sound Pessure Level [dB]  / [2.83V 1m] "	"Frequency [Hz]"	"Sound Pessure Level [dB]  / [2.83V 1m] "	"Frequency [Hz]"	"Sound Pessure Level [dB]  / [2.83V 1m] "	"Frequency [Hz]"	"Sound Pessure Level [dB]  / [2.83V 1m] "	"Frequency [Hz]"	"Sound Pessure Level [dB]  / [2.83V 1m] "	"Frequency [Hz]"	"Sound Pessure Level [dB]  / [2.83V 1m] "	"Frequency [Hz]"	"Sound Pessure Level [dB]  / [2.83V 1m] "	"Frequency [Hz]"	"Sound Pessure Level [dB]  / [2.83V 1m] "	"Frequency [Hz]"	"Sound Pessure Level [dB]  / [2.83V 1m] "	"Frequency [Hz]"	"Sound Pessure Level [dB]  / [2.83V 1m] "	"Frequency [Hz]"	"Sound Pessure Level [dB]  / [2.83V 1m] "	"Frequency [Hz]"	"Sound Pessure Level [dB]  / [2.83V 1m] "	"Frequency [Hz]"	"Sound Pessure Level [dB]  / [2.83V 1m] "	"Frequency [Hz]"	"Sound Pessure Level [dB]  / [2.83V 1m] "	"Frequency [Hz]"	"Sound Pessure Level [dB]  / [2.83V 1m] "	"Frequency [Hz]"	"Sound Pessure Level [dB]  / [2.83V 1m] "	"Frequency [Hz]"	"Sound Pessure Level [dB]  / [2.83V 1m] "	"Frequency [Hz]"	"Sound Pessure Level [dB]  / [2.83V 1m] "	"Frequency [Hz]"	"Sound Pessure Level [dB]  / [2.83V 1m] "	"Frequency [Hz]"	"Sound Pessure Level [dB]  / [2.83V 1m] "	"Frequency [Hz]"	"Sound Pessure Level [dB]  / [2.83V 1m] "	"Frequency [Hz]"	"Sound Pessure Level [dB]  / [2.83V 1m] "	"Frequency [Hz]"	"Sound Pessure Level [dB]  / [2.83V 1m] "	"Frequency [Hz]"	"Sound Pessure Level [dB]  / [2.83V 1m] "	"Frequency [Hz]"	"Sound Pessure Level [dB]  / [2.83V 1m] "	"Frequency [Hz]"	"Sound Pessure Level [dB]  / [2.83V 1m] "	"Frequency [Hz]"	"Sound Pessure Level [dB]  / [2.83V 1m] "	"Frequency [Hz]"	"Sound Pessure Level [dB]  / [2.83V 1m] "	"Frequency [Hz]"	"Sound Pessure Level [dB]  / [2.83V 1m] "	"Frequency [Hz]"	"Sound Pessure Level [dB]  / [2.83V 1m] "	"Frequency [Hz]"	"Sound Pessure Level [dB]  / [2.83V 1m] "	"Frequency [Hz]"	"Sound Pessure Level [dB]  / [2.83V 1m] "	"Frequency [Hz]"	"Sound Pessure Level [dB]  / [2.83V 1m] "	"Frequency [Hz]"	"Sound Pessure Level [dB]  / [2.83V 1m] "	"Frequency [Hz]"	"Sound Pessure Level [dB]  / [2.83V 1m] "
20.5078	55.18	20.5078	55.1897	20.5078	55.1797	20.5078	55.2085	20.5078	55.189	20.5078	55.2359	20.5078	55.2074	20.5078	55.2712	20.5078	55.2346	20.5078	55.3134	20.5078	55.2697	20.5078	55.361	20.5078	55.3116	20.5078	55.4126	20.5078	55.359	20.5078	55.4665	20.5078	55.4103	20.5078	55.5205	20.5078	55.4635	20.5078	55.5729	20.5078	55.5167	20.5078	55.6215	20.5078	55.5679	20.5078	55.6649	20.5078	55.6155	20.5078	55.7017	20.5078	55.658	20.5078	55.731	20.5078	55.6943	20.5078	55.7525	20.5078	55.7239	20.5078	55.7661	20.5078	55.7465	20.5078	55.7721	20.5078	55.7621	20.5078	55.7707
23.4375	59.0078	23.4375	59.0119	23.4375	59.0099	23.4375	59.0221	23.4375	59.0182	23.4375	59.0381	23.4375	59.0325	23.4375	59.0592	23.4375	59.0523	23.4375	59.0848	23.4375	59.0769	23.4375	59.1139	23.4375	59.1054	23.4375	59.1455	23.4375	59.1369	23.4375	59.1784	23.4375	59.1702	23.4375	59.2113	23.4375	59.2038	23.4375	59.243	23.4375	59.2365	23.4375	59.2723	23.4375	59.267	23.4375	59.2984	23.4375	59.2943	23.4375	59.3206	23.4375	59.3177	23.4375	59.3385	23.4375	59.3366	23.4375	59.3521	23.4375	59.351	23.4375	59.3616	23.4375	59.361	23.4375	59.3671	23.4375	59.3669	23.4375	59.3689
26.3672	62.6505	26.3672	62.6545	26.3672	62.6494	26.3672	62.6612	26.3672	62.6512	26.3672	62.6702	26.3672	62.6557	26.3672	62.6813	26.3672	62.6627	26.3672	62.6939	26.3672	62.6718	26.3672	62.7075	26.3672	62.6827	26.3672	62.7213	26.3672	62.6946	26.3672	62.7347	26.3672	62.7069	26.3672	62.7469	26.3672	62.719	26.3672	62.7573	26.3672	62.7301	26.3672	62.7654	26.3672	62.7399	26.3672	62.771	26.3672	62.7479	26.3672	62.7741	26.3672	62.754	26.3672	62.775	26.3672	62.7584	26.3672	62.7742	26.3672	62.7615	26.3672	62.7724	26.3672	62.7638	26.3672	62.7702	26.3672	62.7659	26.3672	62.7679
29.2969	65.8689	29.2969	65.8699	29.2969	65.868	29.2969	65.8708	29.2969	65.8671	29.2969	65.8716	29.2969	65.8662	29.2969	65.8718	29.2969	65.8651	29.2969	65.8715	29.2969	65.8637	29.2969	65.8701	29.2969	65.8617	29.2969	65.8674	29.2969	65.8588	29.2969	65.8632	29.2969	65.8548	29.2969	65.8573	29.2969	65.8494	29.2969	65.8495	29.2969	65.8426	29.2969	65.8402	29.2969	65.8343	29.2969	65.8296	29.2969	65.8249	29.2969	65.8183	29.2969	65.8148	29.2969	65.8072	29.2969	65.8048	29.2969	65.7972	29.2969	65.7956	29.2969	65.7892	29.2969	65.7883	29.2969	65.7839	29.2969	65.7835	29.2969	65.782
32.2266	68.7495	32.2266	68.7519	32.2266	68.7454	32.2266	68.7525	32.2266	68.7397	32.2266	68.7511	32.2266	68.7325	32.2266	68.7476	32.2266	68.7239	32.2266	68.7418	32.2266	68.7139	32.2266	68.7335	32.2266	68.7025	32.2266	68.7229	32.2266	68.6899	32.2266	68.7098	32.2266	68.6762	32.2266	68.6945	32.2266	68.6616	32.2266	68.6773	32.2266	68.6462	32.2266	68.6588	32.2266	68.6306	32.2266	68.6397	32.2266	68.6151	32.2266	68.6209	32.2266	68.6004	32.2266	68.6033	32.2266	68.5872	32.2266	68.588	32.2266	68.5761	32.2266	68.5758	32.2266	68.5681	32.2266	68.5675	32.2266	68.5637	32.2266	68.5635
35.1563	71.4116	35.1563	71.4117	35.1563	71.4082	35.1563	71.4086	35.1563	71.4018	35.1563	71.4022	35.1563	71.3923	35.1563	71.3925	35.1563	71.38	35.1563	71.3796	35.1563	71.365	35.1563	71.3634	35.1563	71.3475	35.1563	71.3444	35.1563	71.3277	35.1563	71.3227	35.1563	71.3061	35.1563	71.2988	35.1563	71.2829	35.1563	71.2735	35.1563	71.2588	35.1563	71.2474	35.1563	71.2345	35.1563	71.2215	35.1563	71.2106	35.1563	71.1969	35.1563	71.1882	35.1563	71.1746	35.1563	71.1681	35.1563	71.1559	35.1563	71.1513	35.1563	71.1416	35.1563	71.1387	35.1563	71.1325	35.1563	71.1311	35.1563	71.1289
38.0859	73.9119	38.0859	73.9117	38.0859	73.9076	38.0859	73.9071	38.0859	73.8991	38.0859	73.898	38.0859	73.8864	38.0859	73.8844	38.0859	73.8698	38.0859	73.8667	38.0859	73.8496	38.0859	73.8449	38.0859	73.8261	38.0859	73.8196	38.0859	73.7999	38.0859	73.7911	38.0859	73.7714	38.0859	73.7604	38.0859	73.7415	38.0859	73.7282	38.0859	73.7109	38.0859	73.6956	38.0859	73.6804	38.0859	73.6638	38.0859	73.6512	38.0859	73.634	38.0859	73.6241	38.0859	73.6076	38.0859	73.6002	38.0859	73.5856	38.0859	73.5805	38.0859	73.569	38.0859	73.5659	38.0859	73.5585	38.0859	73.5571	38.0859	73.5545
41.0156	76.0397	41.0156	76.0385	41.0156	76.036	41.0156	76.0324	41.0156	76.0275	41.0156	76.0214	41.0156	76.0143	41.0156	76.0056	41.0156	75.9967	41.0156	75.9855	41.0156	75.975	41.0156	75.9614	41.0156	75.9499	41.0156	75.934	41.0156	75.9217	41.0156	75.9038	41.0156	75.8912	41.0156	75.8719	41.0156	75.8592	41.0156	75.8391	41.0156	75.8267	41.0156	75.8066	41.0156	75.7947	41.0156	75.7754	41.0156	75.7644	41.0156	75.7467	41.0156	75.7367	41.0156	75.7214	41.0156	75.7129	41.0156	75.7004	41.0156	75.6937	41.0156	75.6845	41.0156	75.6798	41.0156	75.6743	41.0156	75.6719	41.0156	75.67
43.9453	77.9763	43.9453	77.9762	43.9453	77.97	43.9453	77.9696	43.9453	77.9574	43.9453	77.9565	43.9453	77.9389	43.9453	77.9373	43.9453	77.9148	43.9453	77.9122	43.9453	77.8858	43.9453	77.8817	43.9453	77.8525	43.9453	77.8468	43.9453	77.8158	43.9453	77.8082	43.9453	77.7767	43.9453	77.7671	43.9453	77.7363	43.9453	77.7248	43.9453	77.6957	43.9453	77.6828	43.9453	77.6563	43.9453	77.6426	43.9453	77.6194	43.9453	77.6056	43.9453	77.5861	43.9453	77.5731	43.9453	77.5576	43.9453	77.5463	43.9453	77.5349	43.9453	77.5261	43.9453	77.5186	43.9453	77.513	43.9453	77.5093	43.9453	77.5074
46.875	79.5814	46.875	79.581	46.875	79.5747	46.875	79.5737	46.875	79.5612	46.875	79.5596	46.875	79.5413	46.875	79.5391	46.875	79.5154	46.875	79.5126	46.875	79.4841	46.875	79.4808	46.875	79.4484	46.875	79.4447	46.875	79.4091	46.875	79.4053	46.875	79.3675	46.875	79.3638	46.875	79.3249	46.875	79.3216	46.875	79.2826	46.875	79.28	46.875	79.2421	46.875	79.2403	46.875	79.2048	46.875	79.204	46.875	79.172	46.875	79.1719	46.875	79.1446	46.875	79.1451	46.875	79.1236	46.875	79.1244	46.875	79.1095	46.875	79.1101	46.875	79.1025	46.875	79.1027
49.8047	80.9103	49.8047	80.9088	49.8047	80.9037	49.8047	80.8993	49.8047	80.8891	49.8047	80.8819	49.8047	80.867	49.8047	80.8571	49.8047	80.8378	49.8047	80.8257	49.8047	80.8024	49.8047	80.7884	49.8047	80.7618	49.8047	80.7463	49.8047	80.7171	49.8047	80.7008	49.8047	80.6696	49.8047	80.6534	49.8047	80.6211	49.8047	80.6055	49.8047	80.573	49.8047	80.5587	49.8047	80.527	49.8047	80.5146	49.8047	80.4847	49.8047	80.4746	49.8047	80.4476	49.8047	80.4398	49.8047	80.4166	49.8047	80.4111	49.8047	80.3927	49.8047	80.3892	49.8047	80.3764	49.8047	80.3745	49.8047	80.3679	49.8047	80.3673
52.7344	81.9227	52.7344	81.92	52.7344	81.9172	52.7344	81.909	52.7344	81.9035	52.7344	81.8901	52.7344	81.882	52.7344	81.8638	52.7344	81.8532	52.7344	81.831	52.7344	81.818	52.7344	81.7925	52.7344	81.7773	52.7344	81.7496	52.7344	81.7324	52.7344	81.7036	52.7344	81.6848	52.7344	81.6561	52.7344	81.636	52.7344	81.6087	52.7344	81.5878	52.7344	81.5629	52.7344	81.5418	52.7344	81.5201	52.7344	81.4997	52.7344	81.4818	52.7344	81.4627	52.7344	81.4488	52.7344	81.432	52.7344	81.4219	52.7344	81.4083	52.7344	81.4016	52.7344	81.3921	52.7344	81.3883	52.7344	81.3834	52.7344	81.3821
55.6641	82.6781	55.6641	82.6739	55.6641	82.6738	55.6641	82.6611	55.6641	82.6611	55.6641	82.6404	55.6641	82.6403	55.6641	82.6123	55.6641	82.612	55.6641	82.5778	55.6641	82.5772	55.6641	82.538	55.6641	82.537	55.6641	82.4944	55.6641	82.4928	55.6641	82.4484	55.6641	82.446	55.6641	82.4017	55.6641	82.3985	55.6641	82.3561	55.6641	82.3518	55.6641	82.3129	55.6641	82.3077	55.6641	82.2736	55.6641	82.2677	55.6641	82.2392	55.6641	82.233	55.6641	82.2103	55.6641	82.2043	55.6641	82.1875	55.6641	82.1823	55.6641	82.1709	55.6641	82.167	55.6641	82.1604	55.6641	82.1584	55.6641	82.1562
58.5938	83.2927	58.5938	83.2874	58.5938	83.2888	58.5938	83.2729	58.5938	83.2757	58.5938	83.2499	58.5938	83.2539	58.5938	83.219	58.5938	83.2242	58.5938	83.1814	58.5938	83.1874	58.5938	83.1384	58.5938	83.1451	58.5938	83.0917	58.5938	83.0985	58.5938	83.043	58.5938	83.0497	58.5938	82.9942	58.5938	83.0003	58.5938	82.947	58.5938	82.9522	58.5938	82.9033	58.5938	82.9072	58.5938	82.8641	58.5938	82.8667	58.5938	82.8307	58.5938	82.832	58.5938	82.8033	58.5938	82.8036	58.5938	82.7822	58.5938	82.7819	58.5938	82.7673	58.5938	82.7668	58.5938	82.7584	58.5938	82.7581	58.5938	82.7553
61.5234	83.7619	61.5234	83.7559	61.5234	83.7575	61.5234	83.74	61.5234	83.743	61.5234	83.7145	61.5234	83.7189	61.5234	83.6805	61.5234	83.686	61.5234	83.6391	61.5234	83.6454	61.5234	83.5921	61.5234	83.5988	61.5234	83.5413	61.5234	83.5478	61.5234	83.4886	61.5234	83.4945	61.5234	83.4362	61.5234	83.4409	61.5234	83.3861	61.5234	83.3891	61.5234	83.3399	61.5234	83.3411	61.5234	83.2991	61.5234	83.2985	61.5234	83.2645	61.5234	83.2624	61.5234	83.2365	61.5234	83.2334	61.5234	83.2151	61.5234	83.2117	61.5234	83.1999	61.5234	83.1971	61.5234	83.1906	61.5234	83.189	61.5234	83.1869
64.4531	84.1207	64.4531	84.1133	64.4531	84.1166	64.4531	84.0946	64.4531	84.101	64.4531	84.0652	64.4531	84.0745	64.4531	84.0263	64.4531	84.0379	64.4531	83.9792	64.4531	83.9925	64.4531	83.9257	64.4531	83.94	64.4531	83.8679	64.4531	83.8823	64.4531	83.8079	64.4531	83.8215	64.4531	83.7481	64.4531	83.7601	64.4531	83.6908	64.4531	83.7004	64.4531	83.6379	64.4531	83.6446	64.4531	83.5908	64.4531	83.5947	64.4531	83.5508	64.4531	83.5521	64.4531	83.5182	64.4531	83.5175	64.4531	83.4931	64.4531	83.4914	64.4531	83.4753	64.4531	83.4735	64.4531	83.4645	64.4531	83.4634	64.4531	83.4605
67.3828	84.3941	67.3828	84.3847	67.3828	84.3913	67.3828	84.3635	67.3828	84.3766	67.3828	84.3311	67.3828	84.3503	67.3828	84.2888	67.3828	84.3135	67.3828	84.2379	67.3828	84.2673	67.3828	84.1805	67.3828	84.2136	67.3828	84.1188	67.3828	84.1543	67.3828	84.0552	67.3828	84.0916	67.3828	83.9922	67.3828	84.0279	67.3828	83.9321	67.3828	83.9656	67.3828	83.8771	67.3828	83.9071	67.3828	83.8288	67.3828	83.8543	67.3828	83.7881	67.3828	83.8087	67.3828	83.7556	67.3828	83.7712	67.3828	83.7312	67.3828	83.7421	67.3828	83.7146	67.3828	83.7214	67.3828	83.7054	67.3828	83.7087	67.3828	83.7035
70.3125	84.6389	70.3125	84.6268	70.3125	84.6391	70.3125	84.6032	70.3125	84.6276	70.3125	84.5688	70.3125	84.6051	70.3125	84.5249	70.3125	84.5723	70.3125	84.4731	70.3125	84.5309	70.3125	84.4155	70.3125	84.4824	70.3125	84.3545	70.3125	84.4288	70.3125	84.2927	70.3125	84.3725	70.3125	84.2329	70.3125	84.3156	70.3125	84.1775	70.3125	84.2603	70.3125	84.1287	70.3125	84.2086	70.3125	84.088	70.3125	84.1621	70.3125	84.056	70.3125	84.1218	70.3125	84.033	70.3125	84.0881	70.3125	84.0182	70.3125	84.061	70.3125	84.0109	70.3125	84.0401	70.3125	84.0101	70.3125	84.0248	70.3125	84.0148
73.2422	84.8927	73.2422	84.8827	73.2422	84.8905	73.2422	84.8605	73.2422	84.8762	73.2422	84.8271	73.2422	84.8506	73.2422	84.7837	73.2422	84.8149	73.2422	84.7322	73.2422	84.7706	73.2422	84.6748	73.2422	84.7199	73.2422	84.614	73.2422	84.6649	73.2422	84.5527	73.2422	84.6083	73.2422	84.4938	73.2422	84.5523	73.2422	84.4398	73.2422	84.4994	73.2422	84.3928	73.2422	84.4514	73.2422	84.3544	73.2422	84.4096	73.2422	84.325	73.2422	84.3748	73.2422	84.3045	73.2422	84.3468	73.2422	84.292	73.2422	84.3252	73.2422	84.2862	73.2422	84.3091	73.2422	84.2858	73.2422	84.2974	73.2422	84.2897
76.1719	85.0983	76.1719	85.0876	76.1719	85.0955	76.1719	85.0638	76.1719	85.0796	76.1719	85.0278	76.1719	85.0514	76.1719	84.981	76.1719	85.012	76.1719	84.9255	76.1719	84.9634	76.1719	84.8636	76.1719	84.9077	76.1719	84.7982	76.1719	84.8474	76.1719	84.7325	76.1719	84.7854	76.1719	84.6695	76.1719	84.7244	76.1719	84.6119	76.1719	84.6668	76.1719	84.5621	76.1719	84.615	76.1719	84.5214	76.1719	84.5704	76.1719	84.4905	76.1719	84.5336	76.1719	84.4688	76.1719	84.5048	76.1719	84.4554	76.1719	84.4831	76.1719	84.4487	76.1719	84.4675	76.1719	84.4473	76.1719	84.4568	76.1719	84.4501
79.1016	85.2359	79.1016	85.226	79.1016	85.2323	79.1016	85.2031	79.1016	85.2157	79.1016	85.1681	79.1016	85.1869	79.1016	85.1225	79.1016	85.1475	79.1016	85.0685	79.1016	85.0995	79.1016	85.0087	79.1016	85.0453	79.1016	84.9461	79.1016	84.9878	79.1016	84.884	79.1016	84.9297	79.1016	84.8255	79.1016	84.874	79.1016	84.7735	79.1016	84.8231	79.1016	84.73	79.1016	84.7789	79.1016	84.6962	79.1016	84.7425	79.1016	84.6723	79.1016	84.714	79.1016	84.6574	79.1016	84.693	79.1016	84.65	79.1016	84.6779	79.1016	84.6481	79.1016	84.6673	79.1016	84.6499	79.1016	84.6597	79.1016	84.6539
82.0313	85.5419	82.0313	85.5366	82.0313	85.5314	82.0313	85.5157	82.0313	85.5055	82.0313	85.4802	82.0313	85.4653	82.0313	85.4318	82.0313	85.4127	82.0313	85.3729	82.0313	85.3502	82.0313	85.3065	82.0313	85.2809	82.0313	85.236	82.0313	85.2082	82.0313	85.1651	82.0313	85.136	82.0313	85.0976	82.0313	85.0679	82.0313	85.0368	82.0313	85.0073	82.0313	84.985	82.0313	84.9565	82.0313	84.9438	82.0313	84.9171	82.0313	84.9132	82.0313	84.8892	82.0313	84.8922	82.0313	84.8717	82.0313	84.8789	82.0313	84.8626	82.0313	84.8708	82.0313	84.8595	82.0313	84.8658	82.0313	84.86	82.0313	84.8623
84.9609	85.7689	84.9609	85.7648	84.9609	85.7538	84.9609	85.742	84.9609	85.7199	84.9609	85.7013	84.9609	85.6684	84.9609	85.6443	84.9609	85.601	84.9609	85.5734	84.9609	85.5201	84.9609	85.4916	84.9609	85.429	84.9609	85.4023	84.9609	85.3315	84.9609	85.3094	84.9609	85.2319	84.9609	85.2171	84.9609	85.1348	84.9609	85.1294	84.9609	85.0445	84.9609	85.0496	84.9609	84.965	84.9609	84.9802	84.9609	84.899	84.9609	84.9225	84.9609	84.8479	84.9609	84.8764	84.9609	84.8118	84.9609	84.841	84.9609	84.7895	84.9609	84.8147	84.9609	84.7788	84.9609	84.7958	84.9609	84.7774	84.9609	84.7834
87.8906	85.7578	87.8906	85.7449	87.8906	85.7565	87.8906	85.7183	87.8906	85.7406	87.8906	85.6791	87.8906	85.7105	87.8906	85.6291	87.8906	85.667	87.8906	85.57	87.8906	85.6115	87.8906	85.5041	87.8906	85.5457	87.8906	85.4338	87.8906	85.4721	87.8906	85.3618	87.8906	85.3934	87.8906	85.2904	87.8906	85.3128	87.8906	85.2219	87.8906	85.2335	87.8906	85.1582	87.8906	85.1588	87.8906	85.1008	87.8906	85.0915	87.8906	85.0506	87.8906	85.034	87.8906	85.0082	87.8906	84.9877	87.8906	84.9737	87.8906	84.9535	87.8906	84.9474	87.8906	84.9313	87.8906	84.9293	87.8906	84.9205	87.8906	84.9201
90.8203	85.6456	90.8203	85.6286	90.8203	85.6497	90.8203	85.5993	90.8203	85.6411	90.8203	85.5595	90.8203	85.6209	90.8203	85.5113	90.8203	85.5908	90.8203	85.458	90.8203	85.5532	90.8203	85.4032	90.8203	85.5111	90.8203	85.3507	90.8203	85.4677	90.8203	85.3045	90.8203	85.4263	90.8203	85.2679	90.8203	85.3897	90.8203	85.243	90.8203	85.3602	90.8203	85.2308	90.8203	85.3393	90.8203	85.2308	90.8203	85.327	90.8203	85.2409	90.8203	85.3224	90.8203	85.258	90.8203	85.3233	90.8203	85.2783	90.8203	85.327	90.8203	85.2982	90.8203	85.3303	90.8203	85.3146	90.8203	85.3305	90.8203	85.3255
93.75	85.9688	93.75	85.9579	93.75	85.961	93.75	85.9286	93.75	85.9352	93.75	85.8823	93.75	85.8928	93.75	85.8214	93.75	85.8365	93.75	85.7492	93.75	85.7697	93.75	85.67	93.75	85.6964	93.75	85.5887	93.75	85.6214	93.75	85.5107	93.75	85.5493	93.75	85.4409	93.75	85.4846	93.75	85.3836	93.75	85.431	93.75	85.3416	93.75	85.3905	93.75	85.316	93.75	85.364	93.75	85.3054	93.75	85.35	93.75	85.307	93.75	85.3457	93.75	85.3166	93.75	85.3474	93.75	85.3294	93.75	85.3508	93.75	85.3413	93.75	85.3523	93.75	85.3493
96.6797	86.1864	96.6797	86.1794	96.6797	86.1728	96.6797	86.1523	96.6797	86.1387	96.6797	86.1065	96.6797	86.0853	96.6797	86.0443	96.6797	86.0146	96.6797	85.9685	96.6797	85.9293	96.6797	85.883	96.6797	85.8331	96.6797	85.7918	96.6797	85.7305	96.6797	85.6995	96.6797	85.6265	96.6797	85.6105	96.6797	85.5264	96.6797	85.5288	96.6797	85.4352	96.6797	85.4573	96.6797	85.3573	96.6797	85.3977	96.6797	85.2956	96.6797	85.35	96.6797	85.2514	96.6797	85.3132	96.6797	85.2242	96.6797	85.285	96.6797	85.2116	96.6797	85.2629	96.6797	85.2106	96.6797	85.2447	96.6797	85.2175	96.6797	85.2295
102.539	86.3503	102.539	86.3351	102.539	86.3452	102.539	86.3003	102.539	86.32	102.539	86.2475	102.539	86.2762	102.539	86.1797	102.539	86.216	102.539	86.1003	102.539	86.1428	102.539	86.014	102.539	86.0604	102.539	85.9258	102.539	85.9735	102.539	85.8407	102.539	85.8872	102.539	85.7637	102.539	85.8061	102.539	85.6987	102.539	85.7346	102.539	85.648	102.539	85.6757	102.539	85.6123	102.539	85.6313	102.539	85.5904	102.539	85.6012	102.539	85.5797	102.539	85.5838	102.539	85.5764	102.539	85.5763	102.539	85.5768	102.539	85.575	102.539	85.5779	102.539	85.5764	102.539	85.5779
105.469	86.3975	105.469	86.3817	105.469	86.3921	105.469	86.3453	105.469	86.3657	105.469	86.29	105.469	86.3199	105.469	86.2188	105.469	86.2572	105.469	86.1356	105.469	86.1812	105.469	86.0451	105.469	86.0964	105.469	85.9529	105.469	86.0077	105.469	85.8644	105.469	85.9207	105.469	85.7852	105.469	85.8404	105.469	85.7195	105.469	85.7714	105.469	85.6702	105.469	85.7167	105.469	85.6379	105.469	85.6776	105.469	85.6213	105.469	85.6535	105.469	85.6171	105.469	85.6417	105.469	85.6212	105.469	85.6386	105.469	85.6289	105.469	85.6399	105.469	85.6362	105.469	85.6415	105.469	85.6407
108.398	86.4812	108.398	86.4684	108.398	86.4714	108.398	86.4337	108.398	86.4394	108.398	86.3789	108.398	86.3869	108.398	86.307	108.398	86.3167	108.398	86.2221	108.398	86.2328	108.398	86.1294	108.398	86.1399	108.398	86.0347	108.398	86.0438	108.398	85.9439	108.398	85.9504	108.398	85.8628	108.398	85.8658	108.398	85.796	108.398	85.7948	108.398	85.7464	108.398	85.7408	108.398	85.7146	108.398	85.7051	108.398	85.6988	108.398	85.6867	108.398	85.6955	108.398	85.6825	108.398	85.6998	108.398	85.6878	108.398	85.7066	108.398	85.6973	108.398	85.7114	108.398	85.7064	108.398	85.7116
