"SPL Vertical"																																																																							
"On-Axis"		"10°"		"-10°"		"20°"		"-20°"		"30°"		"-30°"		"40°"		"-40°"		"50°"		"-50°"		"60°"		"-60°"		"70°"		"-70°"		"80°"		"-80°"		"90°"		"-90°"		"100°"		"-100°"		"110°"		"-110°"		"120°"		"-120°"		"130°"		"-130°"		"140°"		"-140°"		"150°"		"-150°"		"160°"		"-160°"		"170°"		"-170°"		"180°"	
"Frequency / Hz"	"Sound Pressure Level / dB (re 20 µPa/V)  [2.83  V @ 1. m]"	"Frequency / Hz"	"Sound Pressure Level / dB (re 20 µPa/V)  [2.83  V @ 1. m]"	"Frequency / Hz"	"Sound Pressure Level / dB (re 20 µPa/V)  [2.83  V @ 1. m]"	"Frequency / Hz"	"Sound Pressure Level / dB (re 20 µPa/V)  [2.83  V @ 1. m]"	"Frequency / Hz"	"Sound Pressure Level / dB (re 20 µPa/V)  [2.83  V @ 1. m]"	"Frequency / Hz"	"Sound Pressure Level / dB (re 20 µPa/V)  [2.83  V @ 1. m]"	"Frequency / Hz"	"Sound Pressure Level / dB (re 20 µPa/V)  [2.83  V @ 1. m]"	"Frequency / Hz"	"Sound Pressure Level / dB (re 20 µPa/V)  [2.83  V @ 1. m]"	"Frequency / Hz"	"Sound Pressure Level / dB (re 20 µPa/V)  [2.83  V @ 1. m]"	"Frequency / Hz"	"Sound Pressure Level / dB (re 20 µPa/V)  [2.83  V @ 1. m]"	"Frequency / Hz"	"Sound Pressure Level / dB (re 20 µPa/V)  [2.83  V @ 1. m]"	"Frequency / Hz"	"Sound Pressure Level / dB (re 20 µPa/V)  [2.83  V @ 1. m]"	"Frequency / Hz"	"Sound Pressure Level / dB (re 20 µPa/V)  [2.83  V @ 1. m]"	"Frequency / Hz"	"Sound Pressure Level / dB (re 20 µPa/V)  [2.83  V @ 1. m]"	"Frequency / Hz"	"Sound Pressure Level / dB (re 20 µPa/V)  [2.83  V @ 1. m]"	"Frequency / Hz"	"Sound Pressure Level / dB (re 20 µPa/V)  [2.83  V @ 1. m]"	"Frequency / Hz"	"Sound Pressure Level / dB (re 20 µPa/V)  [2.83  V @ 1. m]"	"Frequency / Hz"	"Sound Pressure Level / dB (re 20 µPa/V)  [2.83  V @ 1. m]"	"Frequency / Hz"	"Sound Pressure Level / dB (re 20 µPa/V)  [2.83  V @ 1. m]"	"Frequency / Hz"	"Sound Pressure Level / dB (re 20 µPa/V)  [2.83  V @ 1. m]"	"Frequency / Hz"	"Sound Pressure Level / dB (re 20 µPa/V)  [2.83  V @ 1. m]"	"Frequency / Hz"	"Sound Pressure Level / dB (re 20 µPa/V)  [2.83  V @ 1. m]"	"Frequency / Hz"	"Sound Pressure Level / dB (re 20 µPa/V)  [2.83  V @ 1. m]"	"Frequency / Hz"	"Sound Pressure Level / dB (re 20 µPa/V)  [2.83  V @ 1. m]"	"Frequency / Hz"	"Sound Pressure Level / dB (re 20 µPa/V)  [2.83  V @ 1. m]"	"Frequency / Hz"	"Sound Pressure Level / dB (re 20 µPa/V)  [2.83  V @ 1. m]"	"Frequency / Hz"	"Sound Pressure Level / dB (re 20 µPa/V)  [2.83  V @ 1. m]"	"Frequency / Hz"	"Sound Pressure Level / dB (re 20 µPa/V)  [2.83  V @ 1. m]"	"Frequency / Hz"	"Sound Pressure Level / dB (re 20 µPa/V)  [2.83  V @ 1. m]"	"Frequency / Hz"	"Sound Pressure Level / dB (re 20 µPa/V)  [2.83  V @ 1. m]"	"Frequency / Hz"	"Sound Pressure Level / dB (re 20 µPa/V)  [2.83  V @ 1. m]"	"Frequency / Hz"	"Sound Pressure Level / dB (re 20 µPa/V)  [2.83  V @ 1. m]"	"Frequency / Hz"	"Sound Pressure Level / dB (re 20 µPa/V)  [2.83  V @ 1. m]"	"Frequency / Hz"	"Sound Pressure Level / dB (re 20 µPa/V)  [2.83  V @ 1. m]"	"Frequency / Hz"	"Sound Pressure Level / dB (re 20 µPa/V)  [2.83  V @ 1. m]"	"Frequency / Hz"	"Sound Pressure Level / dB (re 20 µPa/V)  [2.83  V @ 1. m]"
20.5078	48.3019	20.5078	48.1012	20.5078	48.5189	20.5078	47.9267	20.5078	48.7426	20.5078	47.7873	20.5078	48.964	20.5078	47.6909	20.5078	49.1754	20.5078	47.643	20.5078	49.3705	20.5078	47.6466	20.5078	49.5449	20.5078	47.7018	20.5078	49.6955	20.5078	47.8057	20.5078	49.8212	20.5078	47.953	20.5078	49.9219	20.5078	48.136	20.5078	49.9985	20.5078	48.3452	20.5078	50.0523	20.5078	48.5707	20.5078	50.0843	20.5078	48.8022	20.5078	50.0948	20.5078	49.0307	20.5078	50.0829	20.5078	49.248	20.5078	50.0469	20.5078	49.4475	20.5078	49.9845	20.5078	49.6238	20.5078	49.8937	20.5078	49.7733
21.9727	49.2378	21.9727	49.0224	21.9727	49.4621	21.9727	48.8253	21.9727	49.6863	21.9727	48.6553	21.9727	49.902	21.9727	48.5204	21.9727	50.1021	21.9727	48.4271	21.9727	50.2804	21.9727	48.3794	21.9727	50.4324	21.9727	48.3791	21.9727	50.555	21.9727	48.4249	21.9727	50.6466	21.9727	48.5134	21.9727	50.707	21.9727	48.6388	21.9727	50.737	21.9727	48.7939	21.9727	50.7385	21.9727	48.9707	21.9727	50.7134	21.9727	49.1614	21.9727	50.6639	21.9727	49.3584	21.9727	50.5917	21.9727	49.5556	21.9727	50.4981	21.9727	49.7474	21.9727	50.3839	21.9727	49.9294	21.9727	50.25	21.9727	50.0979
23.4375	47.4593	23.4375	47.1069	23.4375	47.7998	23.4375	46.7536	23.4375	48.1176	23.4375	46.4106	23.4375	48.403	23.4375	46.0883	23.4375	48.6473	23.4375	45.7962	23.4375	48.8432	23.4375	45.5425	23.4375	48.9848	23.4375	45.3337	23.4375	49.0681	23.4375	45.1751	23.4375	49.0905	23.4375	45.0705	23.4375	49.0511	23.4375	45.0224	23.4375	48.9511	23.4375	45.0324	23.4375	48.7931	23.4375	45.1007	23.4375	48.5812	23.4375	45.2268	23.4375	48.3212	23.4375	45.4089	23.4375	48.02	23.4375	45.6438	23.4375	47.6861	23.4375	45.9261	23.4375	47.3297	23.4375	46.2474	23.4375	46.9624	23.4375	46.5971
24.9023	51.1194	24.9023	50.8188	24.9023	51.4111	24.9023	50.5182	24.9023	51.6853	24.9023	50.2259	24.9023	51.9336	24.9023	49.9501	24.9023	52.1481	24.9023	49.6978	24.9023	52.3222	24.9023	49.4759	24.9023	52.4502	24.9023	49.2902	24.9023	52.5278	24.9023	49.1461	24.9023	52.5525	24.9023	49.0482	24.9023	52.5231	24.9023	49.0002	24.9023	52.4404	24.9023	49.005	24.9023	52.3065	24.9023	49.064	24.9023	52.1253	24.9023	49.1771	24.9023	51.9018	24.9023	49.3424	24.9023	51.6422	24.9023	49.5556	24.9023	51.3538	24.9023	49.81	24.9023	51.0451	24.9023	50.0969	24.9023	50.7255	24.9023	50.4058
26.3672	51.9993	26.3672	51.6605	26.3672	52.3248	26.3672	51.319	26.3672	52.6265	26.3672	50.9851	26.3672	52.8946	26.3672	50.6685	26.3672	53.1201	26.3672	50.3773	26.3672	53.2957	26.3672	50.1187	26.3672	53.4154	26.3672	49.8984	26.3672	53.4749	26.3672	49.7213	26.3672	53.472	26.3672	49.5914	26.3672	53.4061	26.3672	49.5122	26.3672	53.2789	26.3672	49.4867	26.3672	53.094	26.3672	49.5174	26.3672	52.8566	26.3672	49.6059	26.3672	52.574	26.3672	49.7521	26.3672	52.255	26.3672	49.954	26.3672	51.9097	26.3672	50.2068	26.3672	51.5495	26.3672	50.5033	26.3672	51.1866	26.3672	50.8337
27.832	54.3453	27.832	54.0959	27.832	54.5897	27.832	53.8496	27.832	54.8207	27.832	53.6131	27.832	55.0295	27.832	53.3919	27.832	55.2077	27.832	53.1902	27.832	55.3479	27.832	53.0107	27.832	55.4438	27.832	52.8556	27.832	55.4906	27.832	52.7266	27.832	55.4854	27.832	52.6255	27.832	55.4275	27.832	52.5543	27.832	55.3182	27.832	52.5159	27.832	55.1608	27.832	52.5135	27.832	54.9609	27.832	52.5503	27.832	54.7255	27.832	52.629	27.832	54.4635	27.832	52.7509	27.832	54.1848	27.832	52.9154	27.832	53.9002	27.832	53.1194	27.832	53.6207	27.832	53.3572
29.2969	55.8678	29.2969	55.6175	29.2969	56.113	29.2969	55.3705	29.2969	56.344	29.2969	55.1341	29.2969	56.5514	29.2969	54.914	29.2969	56.7265	29.2969	54.7143	29.2969	56.8614	29.2969	54.5377	29.2969	56.9494	29.2969	54.3858	29.2969	56.9859	29.2969	54.2597	29.2969	56.9681	29.2969	54.1605	29.2969	56.8956	29.2969	54.0897	29.2969	56.7704	29.2969	54.0493	29.2969	56.5969	29.2969	54.0417	29.2969	56.3819	29.2969	54.0695	29.2969	56.1341	29.2969	54.1351	29.2969	55.8639	29.2969	54.2399	29.2969	55.5827	29.2969	54.3845	29.2969	55.302	29.2969	54.5675	29.2969	55.033	29.2969	54.7856
30.7617	58.2516	30.7617	58.0329	30.7617	58.4646	30.7617	57.8159	30.7617	58.664	30.7617	57.6065	30.7617	58.8415	30.7617	57.4096	30.7617	58.9893	30.7617	57.2285	30.7617	59.0999	30.7617	57.0656	30.7617	59.1673	30.7617	56.9221	30.7617	59.1869	30.7617	56.7988	30.7617	59.156	30.7617	56.6966	30.7617	59.0744	30.7617	56.6165	30.7617	58.944	30.7617	56.5604	30.7617	58.7692	30.7617	56.5309	30.7617	58.5571	30.7617	56.5311	30.7617	58.3164	30.7617	56.5645	30.7617	58.0579	30.7617	56.6341	30.7617	57.793	30.7617	56.7421	30.7617	57.5336	30.7617	56.8892	30.7617	57.2906	30.7617	57.0734
32.2266	60.2081	32.2266	60.0062	32.2266	60.4069	32.2266	59.8081	32.2266	60.5949	32.2266	59.6197	32.2266	60.764	32.2266	59.4458	32.2266	60.9066	32.2266	59.2895	32.2266	61.0157	32.2266	59.1527	32.2266	61.0858	32.2266	59.0364	32.2266	61.1127	32.2266	58.9411	32.2266	61.0942	32.2266	58.8671	32.2266	61.0304	32.2266	58.8148	32.2266	60.9234	32.2266	58.785	32.2266	60.7776	32.2266	58.7793	32.2266	60.5993	32.2266	58.7992	32.2266	60.3965	32.2266	58.8467	32.2266	60.178	32.2266	58.9234	32.2266	59.9535	32.2266	59.0303	32.2266	59.7322	32.2266	59.1673	32.2266	59.5229	32.2266	59.3327
33.6914	62.2405	33.6914	62.0693	33.6914	62.4078	33.6914	61.9002	33.6914	62.5647	33.6914	61.7379	33.6914	62.7043	33.6914	61.5862	33.6914	62.8198	33.6914	61.4477	33.6914	62.905	33.6914	61.324	33.6914	62.9548	33.6914	61.2161	33.6914	62.9657	33.6914	61.1244	33.6914	62.9356	33.6914	61.0495	33.6914	62.8651	33.6914	60.992	33.6914	62.7563	33.6914	60.9529	33.6914	62.614	33.6914	60.9336	33.6914	62.4444	33.6914	60.9357	33.6914	62.2557	33.6914	60.9613	33.6914	62.0567	33.6914	61.0124	33.6914	61.8564	33.6914	61.0902	33.6914	61.6635	33.6914	61.1957	33.6914	61.4854	33.6914	61.3282
35.1562	63.9604	35.1562	63.8043	35.1562	64.1119	35.1562	63.6492	35.1562	64.253	35.1562	63.4993	35.1562	64.3775	35.1562	63.3582	35.1562	64.4792	35.1562	63.2284	35.1562	64.5527	35.1562	63.1115	35.1562	64.5933	35.1562	63.0085	35.1562	64.5979	35.1562	62.9201	35.1562	64.5652	35.1562	62.8469	35.1562	64.4955	35.1562	62.7898	35.1562	64.3915	35.1562	62.7499	35.1562	64.2574	35.1562	62.7286	35.1562	64.0995	35.1562	62.7275	35.1562	63.9252	35.1562	62.7486	35.1562	63.7423	35.1562	62.7935	35.1562	63.5592	35.1562	62.8633	35.1562	63.3834	35.1562	62.9586	35.1562	63.2215	35.1562	63.0787
36.6211	65.6076	36.6211	65.4738	36.6211	65.7377	36.6211	65.341	36.6211	65.8587	36.6211	65.2135	36.6211	65.9649	36.6211	65.0942	36.6211	66.0508	36.6211	64.9853	36.6211	66.1114	36.6211	64.8884	36.6211	66.1429	36.6211	64.804	36.6211	66.1426	36.6211	64.7325	36.6211	66.1094	36.6211	64.6741	36.6211	66.0443	36.6211	64.6291	36.6211	65.9498	36.6211	64.5978	36.6211	65.8304	36.6211	64.5809	36.6211	65.6921	36.6211	64.5795	36.6211	65.5417	36.6211	64.5946	36.6211	65.3866	36.6211	64.6278	36.6211	65.2337	36.6211	64.6803	36.6211	65.0895	36.6211	64.753	36.6211	64.9592	36.6211	64.8463
38.0859	66.9663	38.0859	66.84	38.0859	67.0874	38.0859	66.7129	38.0859	67.1983	38.0859	66.5888	38.0859	67.2942	38.0859	66.4708	38.0859	67.37	38.0859	66.361	38.0859	67.4214	38.0859	66.2613	38.0859	67.4449	38.0859	66.1728	38.0859	67.4383	38.0859	66.0962	38.0859	67.4007	38.0859	66.0321	38.0859	67.3331	38.0859	65.9812	38.0859	67.2381	38.0859	65.9443	38.0859	67.1201	38.0859	65.9222	38.0859	66.9847	38.0859	65.9161	38.0859	66.8384	38.0859	65.9273	38.0859	66.6879	38.0859	65.9569	38.0859	66.54	38.0859	66.0061	38.0859	66.4006	38.0859	66.0757	38.0859	66.2745	38.0859	66.1655
39.5508	68.2716	39.5508	68.1626	39.5508	68.3759	39.5508	68.0527	39.5508	68.4711	39.5508	67.9453	39.5508	68.5529	39.5508	67.843	39.5508	68.6167	39.5508	67.7479	39.5508	68.6589	39.5508	67.6615	39.5508	68.6764	39.5508	67.5848	39.5508	68.6671	39.5508	67.5184	39.5508	68.6308	39.5508	67.463	39.5508	68.5683	39.5508	67.4189	39.5508	68.4825	39.5508	67.3868	39.5508	68.3773	39.5508	67.3671	39.5508	68.258	39.5508	67.3608	39.5508	68.1304	39.5508	67.3687	39.5508	68.0006	39.5508	67.3918	39.5508	67.8744	39.5508	67.4312	39.5508	67.7566	39.5508	67.4875	39.5508	67.6513	39.5508	67.561
41.0156	69.326	41.0156	69.2234	41.0156	69.4236	41.0156	69.1196	41.0156	69.5121	41.0156	69.018	41.0156	69.5874	41.0156	68.9213	41.0156	69.6457	41.0156	68.832	41.0156	69.6837	41.0156	68.7516	41.0156	69.6987	41.0156	68.6815	41.0156	69.6894	41.0156	68.6224	41.0156	69.6556	41.0156	68.575	41.0156	69.5988	41.0156	68.5395	41.0156	69.5216	41.0156	68.5162	41.0156	69.4279	41.0156	68.5053	41.0156	69.3225	41.0156	68.5069	41.0156	69.2108	41.0156	68.5214	41.0156	69.0977	41.0156	68.5489	41.0156	68.9879	41.0156	68.5897	41.0156	68.8852	41.0156	68.6441	41.0156	68.7926	41.0156	68.7118
42.4805	70.4345	42.4805	70.3388	42.4805	70.5226	42.4805	70.2388	42.4805	70.5998	42.4805	70.1376	42.4805	70.6623	42.4805	70.0375	42.4805	70.7068	42.4805	69.9407	42.4805	70.7303	42.4805	69.8491	42.4805	70.7305	42.4805	69.7642	42.4805	70.7062	42.4805	69.6872	42.4805	70.6576	42.4805	69.6195	42.4805	70.5859	42.4805	69.5621	42.4805	70.494	42.4805	69.5161	42.4805	70.3859	42.4805	69.4827	42.4805	70.2666	42.4805	69.4631	42.4805	70.1416	42.4805	69.4583	42.4805	70.0164	42.4805	69.4695	42.4805	69.8964	42.4805	69.4978	42.4805	69.7861	42.4805	69.5438	42.4805	69.689	42.4805	69.6078
43.9453	71.3114	43.9453	71.2209	43.9453	71.3946	43.9453	71.1261	43.9453	71.4669	43.9453	71.0299	43.9453	71.525	43.9453	70.9348	43.9453	71.5658	43.9453	70.8431	43.9453	71.5864	43.9453	70.7564	43.9453	71.5849	43.9453	70.6763	43.9453	71.5603	43.9453	70.604	43.9453	71.5128	43.9453	70.5408	43.9453	71.4439	43.9453	70.4876	43.9453	71.3565	43.9453	70.4453	43.9453	71.2544	43.9453	70.4148	43.9453	71.1423	43.9453	70.3971	43.9453	71.0253	43.9453	70.3931	43.9453	70.9088	43.9453	70.4038	43.9453	70.7975	43.9453	70.43	43.9453	70.6955	43.9453	70.4724	43.9453	70.606	43.9453	70.5312
45.4102	72.2173	45.4102	72.1346	45.4102	72.2926	45.4102	72.0472	45.4102	72.3572	45.4102	71.958	45.4102	72.4082	45.4102	71.8693	45.4102	72.4427	45.4102	71.7833	45.4102	72.4585	45.4102	71.7016	45.4102	72.4538	45.4102	71.626	45.4102	72.4279	45.4102	71.5575	45.4102	72.3813	45.4102	71.4975	45.4102	72.3156	45.4102	71.4469	45.4102	72.2334	45.4102	71.4066	45.4102	72.1385	45.4102	71.3774	45.4102	72.0352	45.4102	71.3603	45.4102	71.9281	45.4102	71.3559	45.4102	71.8219	45.4102	71.3652	45.4102	71.7209	45.4102	71.3887	45.4102	71.6285	45.4102	71.427	45.4102	71.5476	45.4102	71.4801
46.875	73.0442	46.875	72.9688	46.875	73.1115	46.875	72.8882	46.875	73.168	46.875	72.8048	46.875	73.2109	46.875	72.7213	46.875	73.2379	46.875	72.6396	46.875	73.2468	46.875	72.5619	46.875	73.2367	46.875	72.4896	46.875	73.207	46.875	72.4243	46.875	73.1587	46.875	72.3672	46.875	73.0934	46.875	72.3193	46.875	73.0143	46.875	72.2814	46.875	72.9248	46.875	72.2543	46.875	72.8293	46.875	72.2384	46.875	72.732	46.875	72.2341	46.875	72.6371	46.875	72.2418	46.875	72.5481	46.875	72.2619	46.875	72.4677	46.875	72.2946	46.875	72.3979	46.875	72.34
48.3398	73.7523	48.3398	73.6786	48.3398	73.817	48.3398	73.5985	48.3398	73.8701	48.3398	73.5145	48.3398	73.909	48.3398	73.4291	48.3398	73.9315	48.3398	73.3442	48.3398	73.9358	48.3398	73.262	48.3398	73.9208	48.3398	73.1842	48.3398	73.8863	48.3398	73.1124	48.3398	73.8332	48.3398	73.0481	48.3398	73.7631	48.3398	72.9925	48.3398	73.6791	48.3398	72.9467	48.3398	73.5847	48.3398	72.9118	48.3398	73.4841	48.3398	72.8885	48.3398	73.3818	48.3398	72.8778	48.3398	73.2819	48.3398	72.8802	48.3398	73.1883	48.3398	72.8965	48.3398	73.104	48.3398	72.9271	48.3398	73.0314	48.3398	72.9721
51.2695	75.1977	51.2695	75.1305	51.2695	75.2551	51.2695	75.0557	51.2695	75.3001	51.2695	74.9758	51.2695	75.3308	51.2695	74.8933	51.2695	75.3452	51.2695	74.8104	51.2695	75.3421	51.2695	74.7292	51.2695	75.321	51.2695	74.6517	51.2695	75.2819	51.2695	74.5796	51.2695	75.226	51.2695	74.5146	51.2695	75.1553	51.2695	74.4579	51.2695	75.0726	51.2695	74.4107	51.2695	74.9814	51.2695	74.374	51.2695	74.8855	51.2695	74.3486	51.2695	74.789	51.2695	74.3352	51.2695	74.6957	51.2695	74.3344	51.2695	74.609	51.2695	74.3468	51.2695	74.5316	51.2695	74.3728	51.2695	74.4657	51.2695	74.4125
52.7344	75.9264	52.7344	75.8625	52.7344	75.9805	52.7344	75.7911	52.7344	76.0224	52.7344	75.7147	52.7344	76.0504	52.7344	75.6356	52.7344	76.0627	52.7344	75.5563	52.7344	76.0584	52.7344	75.479	52.7344	76.037	52.7344	75.4057	52.7344	75.999	52.7344	75.3381	52.7344	75.9457	52.7344	75.278	52.7344	75.879	52.7344	75.2265	52.7344	75.8019	52.7344	75.1846	52.7344	75.7176	52.7344	75.153	52.7344	75.6297	52.7344	75.1323	52.7344	75.5418	52.7344	75.1228	52.7344	75.4573	52.7344	75.1247	52.7344	75.3789	52.7344	75.1382	52.7344	75.3091	52.7344	75.1635	52.7344	75.2493	52.7344	75.2006
54.1992	76.6341	54.1992	76.575	54.1992	76.6831	54.1992	76.508	54.1992	76.72	54.1992	76.4356	54.1992	76.7428	54.1992	76.3601	54.1992	76.7504	54.1992	76.2839	54.1992	76.7419	54.1992	76.2092	54.1992	76.7171	54.1992	76.1381	54.1992	76.6768	54.1992	76.0723	54.1992	76.6223	54.1992	76.0135	54.1992	76.556	54.1992	75.963	54.1992	76.4806	54.1992	75.9218	54.1992	76.3996	54.1992	75.8905	54.1992	76.3163	54.1992	75.8695	54.1992	76.2342	54.1992	75.8591	54.1992	76.1561	54.1992	75.8594	54.1992	76.0846	54.1992	75.8704	54.1992	76.0215	54.1992	75.8922	54.1992	75.9679	54.1992	75.9247
55.6641	77.4658	55.6641	77.4111	55.6641	77.5095	55.6641	77.3475	55.6641	77.5402	55.6641	77.2773	55.6641	77.5566	55.6641	77.2026	55.6641	77.5575	55.6641	77.1257	55.6641	77.5422	55.6641	77.0491	55.6641	77.5109	55.6641	76.9748	55.6641	77.4644	55.6641	76.9049	55.6641	77.4044	55.6641	76.8411	55.6641	77.3332	55.6641	76.785	55.6641	77.2539	55.6641	76.7377	55.6641	77.1699	55.6641	76.7003	55.6641	77.0847	55.6641	76.6733	55.6641	77.0018	55.6641	76.6571	55.6641	76.9242	55.6641	76.6519	55.6641	76.8541	55.6641	76.6579	55.6641	76.7933	55.6641	76.675	55.6641	76.7429	55.6641	76.7034
58.5938	78.9475	58.5938	78.8949	58.5938	78.988	58.5938	78.8322	58.5938	79.0148	58.5938	78.7618	58.5938	79.0264	58.5938	78.686	58.5938	79.022	58.5938	78.6075	58.5938	79.0015	58.5938	78.5287	58.5938	78.9653	58.5938	78.4522	58.5938	78.9144	58.5938	78.3801	58.5938	78.851	58.5938	78.3144	58.5938	78.7775	58.5938	78.2569	58.5938	78.6972	58.5938	78.2086	58.5938	78.6134	58.5938	78.1704	58.5938	78.5296	58.5938	78.1429	58.5938	78.449	58.5938	78.1261	58.5938	78.3743	58.5938	78.12	58.5938	78.3075	58.5938	78.1247	58.5938	78.25	58.5938	78.14	58.5938	78.2027	58.5938	78.166
60.0586	79.6208	60.0586	79.5678	60.0586	79.66	60.0586	79.5031	60.0586	79.684	60.0586	79.4291	60.0586	79.6913	60.0586	79.3484	60.0586	79.6815	60.0586	79.2635	60.0586	79.6546	60.0586	79.1774	60.0586	79.6111	60.0586	79.0927	60.0586	79.5525	60.0586	79.0121	60.0586	79.4811	60.0586	78.9378	60.0586	79.3997	60.0586	78.8716	60.0586	79.3116	60.0586	78.8153	60.0586	79.2204	60.0586	78.7697	60.0586	79.1298	60.0586	78.7356	60.0586	79.043	60.0586	78.7133	60.0586	78.9629	60.0586	78.703	60.0586	78.8917	60.0586	78.7046	60.0586	78.831	60.0586	78.7183	60.0586	78.7815	60.0586	78.7439
62.9883	80.819	62.9883	80.7704	62.9883	80.8559	62.9883	80.7118	62.9883	80.8795	62.9883	80.6456	62.9883	80.8886	62.9883	80.5743	62.9883	80.8828	62.9883	80.5004	62.9883	80.8623	62.9883	80.4264	62.9883	80.8277	62.9883	80.355	62.9883	80.7803	62.9883	80.2883	62.9883	80.7223	62.9883	80.2281	62.9883	80.6559	62.9883	80.176	62.9883	80.584	62.9883	80.1329	62.9883	80.5094	62.9883	80.0996	62.9883	80.435	62.9883	80.0761	62.9883	80.3633	62.9883	80.0626	62.9883	80.2965	62.9883	80.059	62.9883	80.2363	62.9883	80.065	62.9883	80.184	62.9883	80.0807	62.9883	80.1403	62.9883	80.1058
64.4531	81.4529	64.4531	81.4064	64.4531	81.4873	64.4531	81.3495	64.4531	81.5079	64.4531	81.2846	64.4531	81.5139	64.4531	81.2141	64.4531	81.505	64.4531	81.1409	64.4531	81.4814	64.4531	81.0676	64.4531	81.4442	64.4531	80.997	64.4531	81.3949	64.4531	80.9313	64.4531	81.336	64.4531	80.8725	64.4531	81.2701	64.4531	80.8223	64.4531	81.2001	64.4531	80.7817	64.4531	81.1291	64.4531	80.7511	64.4531	81.0596	64.4531	80.7306	64.4531	80.994	64.4531	80.7198	64.4531	80.9339	64.4531	80.7183	64.4531	80.8804	64.4531	80.7255	64.4531	80.8342	64.4531	80.741	64.4531	80.7954	64.4531	80.7643
67.3828	82.2485	67.3828	82.2051	67.3828	82.2776	67.3828	82.149	67.3828	82.2911	67.3828	82.0828	67.3828	82.2884	67.3828	82.0089	67.3828	82.2694	67.3828	81.9304	67.3828	82.2351	67.3828	81.8503	67.3828	82.1869	67.3828	81.7717	67.3828	82.127	67.3828	81.6974	67.3828	82.0582	67.3828	81.63	67.3828	81.9837	67.3828	81.5713	67.3828	81.9068	67.3828	81.5228	67.3828	81.8307	67.3828	81.4852	67.3828	81.7581	67.3828	81.4587	67.3828	81.6913	67.3828	81.4428	67.3828	81.6316	67.3828	81.4369	67.3828	81.5797	67.3828	81.4403	67.3828	81.536	67.3828	81.4523	67.3828	81.5002	67.3828	81.4723
