"SPL Vertical"
"On-Axis"		"10°"		"-10°"		"20°"		"-20°"		"30°"		"-30°"		"40°"		"-40°"		"50°"		"-50°"		"60°"		"-60°"		"70°"		"-70°"		"80°"		"-80°"		"90°"		"-90°"		"100°"		"-100°"		"110°"		"-110°"		"120°"		"-120°"		"130°"		"-130°"		"140°"		"-140°"		"150°"		"-150°"		"160°"		"-160°"		"170°"		"-170°"		"180°"
"Frequency / Hz"	"Sound Pressure Level / dB (re 20 µPa/V)  [2.83  V @ 1. m]"	"Frequency / Hz"	"Sound Pressure Level / dB (re 20 µPa/V)  [2.83  V @ 1. m]"	"Frequency / Hz"	"Sound Pressure Level / dB (re 20 µPa/V)  [2.83  V @ 1. m]"	"Frequency / Hz"	"Sound Pressure Level / dB (re 20 µPa/V)  [2.83  V @ 1. m]"	"Frequency / Hz"	"Sound Pressure Level / dB (re 20 µPa/V)  [2.83  V @ 1. m]"	"Frequency / Hz"	"Sound Pressure Level / dB (re 20 µPa/V)  [2.83  V @ 1. m]"	"Frequency / Hz"	"Sound Pressure Level / dB (re 20 µPa/V)  [2.83  V @ 1. m]"	"Frequency / Hz"	"Sound Pressure Level / dB (re 20 µPa/V)  [2.83  V @ 1. m]"	"Frequency / Hz"	"Sound Pressure Level / dB (re 20 µPa/V)  [2.83  V @ 1. m]"	"Frequency / Hz"	"Sound Pressure Level / dB (re 20 µPa/V)  [2.83  V @ 1. m]"	"Frequency / Hz"	"Sound Pressure Level / dB (re 20 µPa/V)  [2.83  V @ 1. m]"	"Frequency / Hz"	"Sound Pressure Level / dB (re 20 µPa/V)  [2.83  V @ 1. m]"	"Frequency / Hz"	"Sound Pressure Level / dB (re 20 µPa/V)  [2.83  V @ 1. m]"	"Frequency / Hz"	"Sound Pressure Level / dB (re 20 µPa/V)  [2.83  V @ 1. m]"	"Frequency / Hz"	"Sound Pressure Level / dB (re 20 µPa/V)  [2.83  V @ 1. m]"	"Frequency / Hz"	"Sound Pressure Level / dB (re 20 µPa/V)  [2.83  V @ 1. m]"	"Frequency / Hz"	"Sound Pressure Level / dB (re 20 µPa/V)  [2.83  V @ 1. m]"	"Frequency / Hz"	"Sound Pressure Level / dB (re 20 µPa/V)  [2.83  V @ 1. m]"	"Frequency / Hz"	"Sound Pressure Level / dB (re 20 µPa/V)  [2.83  V @ 1. m]"	"Frequency / Hz"	"Sound Pressure Level / dB (re 20 µPa/V)  [2.83  V @ 1. m]"	"Frequency / Hz"	"Sound Pressure Level / dB (re 20 µPa/V)  [2.83  V @ 1. m]"	"Frequency / Hz"	"Sound Pressure Level / dB (re 20 µPa/V)  [2.83  V @ 1. m]"	"Frequency / Hz"	"Sound Pressure Level / dB (re 20 µPa/V)  [2.83  V @ 1. m]"	"Frequency / Hz"	"Sound Pressure Level / dB (re 20 µPa/V)  [2.83  V @ 1. m]"	"Frequency / Hz"	"Sound Pressure Level / dB (re 20 µPa/V)  [2.83  V @ 1. m]"	"Frequency / Hz"	"Sound Pressure Level / dB (re 20 µPa/V)  [2.83  V @ 1. m]"	"Frequency / Hz"	"Sound Pressure Level / dB (re 20 µPa/V)  [2.83  V @ 1. m]"	"Frequency / Hz"	"Sound Pressure Level / dB (re 20 µPa/V)  [2.83  V @ 1. m]"	"Frequency / Hz"	"Sound Pressure Level / dB (re 20 µPa/V)  [2.83  V @ 1. m]"	"Frequency / Hz"	"Sound Pressure Level / dB (re 20 µPa/V)  [2.83  V @ 1. m]"	"Frequency / Hz"	"Sound Pressure Level / dB (re 20 µPa/V)  [2.83  V @ 1. m]"	"Frequency / Hz"	"Sound Pressure Level / dB (re 20 µPa/V)  [2.83  V @ 1. m]"	"Frequency / Hz"	"Sound Pressure Level / dB (re 20 µPa/V)  [2.83  V @ 1. m]"	"Frequency / Hz"	"Sound Pressure Level / dB (re 20 µPa/V)  [2.83  V @ 1. m]"	"Frequency / Hz"	"Sound Pressure Level / dB (re 20 µPa/V)  [2.83  V @ 1. m]"	"Frequency / Hz"	"Sound Pressure Level / dB (re 20 µPa/V)  [2.83  V @ 1. m]"
20.5078	48.7718	20.5078	48.8875	20.5078	48.6237	20.5078	48.9454	20.5078	48.4913	20.5078	48.9349	20.5078	48.4518	20.5078	48.8565	20.5078	48.6066	20.5078	48.7216	20.5078	49.0431	20.5078	48.552	20.5078	49.7771	20.5078	48.3815	20.5078	50.7303	20.5078	48.2541	20.5078	51.773	20.5078	48.2204	20.5078	52.7821	20.5078	48.328	20.5078	53.6692	20.5078	48.6092	20.5078	54.3803	20.5078	49.0715	20.5078	54.887	20.5078	49.6956	20.5078	55.178	20.5078	50.4421	20.5078	55.2532	20.5078	51.2618	20.5078	55.1211	20.5078	52.1039	20.5078	54.7971	20.5078	52.9199	20.5078	54.3028	20.5078	53.6659
21.9727	46.4769	21.9727	46.6756	21.9727	46.2315	21.9727	46.7811	21.9727	46.042	21.9727	46.7794	21.9727	46.083	21.9727	46.6747	21.9727	46.5494	21.9727	46.4854	21.9727	47.5123	21.9727	46.2462	21.9727	48.8399	21.9727	46.0128	21.9727	50.3049	21.9727	45.8657	21.9727	51.7194	21.9727	45.9002	21.9727	52.9708	21.9727	46.198	21.9727	54.0025	21.9727	46.7881	21.9727	54.7892	21.9727	47.6308	21.9727	55.3226	21.9727	48.6429	21.9727	55.605	21.9727	49.7359	21.9727	55.6457	21.9727	50.8379	21.9727	55.4596	21.9727	51.8978	21.9727	55.0663	21.9727	52.8785	21.9727	54.4886	21.9727	53.7509
23.4375	50.0746	23.4375	50.2152	23.4375	49.8732	23.4375	50.2586	23.4375	49.6907	23.4375	50.1947	23.4375	49.6618	23.4375	50.032	23.4375	49.9503	23.4375	49.7954	23.4375	50.6553	23.4375	49.5292	23.4375	51.7223	23.4375	49.3007	23.4375	52.9811	23.4375	49.1978	23.4375	54.2549	23.4375	49.3102	23.4375	55.4202	23.4375	49.6942	23.4375	56.4071	23.4375	50.344	23.4375	57.1815	23.4375	51.1969	23.4375	57.7303	23.4375	52.1674	23.4375	58.0529	23.4375	53.1779	23.4375	58.1567	23.4375	54.1705	23.4375	58.0548	23.4375	55.1052	23.4375	57.764	23.4375	55.9536	23.4375	57.3035	23.4375	56.6932
24.9023	52.1505	24.9023	52.2153	24.9023	52.0936	24.9023	52.2478	24.9023	52.1196	24.9023	52.2359	24.9023	52.3331	24.9023	52.188	24.9023	52.8303	24.9023	52.1282	24.9023	53.6377	24.9023	52.0939	24.9023	54.6857	24.9023	52.131	24.9023	55.847	24.9023	52.2859	24.9023	56.9977	24.9023	52.5935	24.9023	58.0468	24.9023	53.0663	24.9023	58.9378	24.9023	53.6901	24.9023	59.6393	24.9023	54.4308	24.9023	60.1372	24.9023	55.2459	24.9023	60.4284	24.9023	56.0936	24.9023	60.5186	24.9023	56.9379	24.9023	60.4191	24.9023	57.7482	24.9023	60.1466	24.9023	58.4983	24.9023	59.7208	24.9023	59.1637
26.3672	55.3964	26.3672	55.3109	26.3672	55.5654	26.3672	55.2842	26.3672	55.8428	26.3672	55.296	26.3672	56.2471	26.3672	55.3334	26.3672	56.7834	26.3672	55.3914	26.3672	57.4383	26.3672	55.4731	26.3672	58.1796	26.3672	55.588	26.3672	58.9613	26.3672	55.7495	26.3672	59.7316	26.3672	55.9722	26.3672	60.441	26.3672	56.268	26.3672	61.0476	26.3672	56.6429	26.3672	61.5197	26.3672	57.0956	26.3672	61.837	26.3672	57.6168	26.3672	61.9899	26.3672	58.1911	26.3672	61.9792	26.3672	58.7987	26.3672	61.8147	26.3672	59.4174	26.3672	61.5134	26.3672	60.0235	26.3672	61.0975	26.3672	60.5922
27.832	57.4691	27.832	57.4367	27.832	57.4989	27.832	57.3811	27.832	57.5611	27.832	57.2944	27.832	57.7039	27.832	57.1792	27.832	57.9783	27.832	57.0476	27.832	58.4191	27.832	56.92	27.832	59.0248	27.832	56.8252	27.832	59.7524	27.832	56.7975	27.832	60.5321	27.832	56.8718	27.832	61.2895	27.832	57.0759	27.832	61.962	27.832	57.422	27.832	62.5041	27.832	57.9022	27.832	62.888	27.832	58.4915	27.832	63.1005	27.832	59.154	27.832	63.1401	27.832	59.8514	27.832	63.0147	27.832	60.5478	27.832	62.7388	27.832	61.2115	27.832	62.3314	27.832	61.8145
29.2969	59.6537	29.2969	59.6044	29.2969	59.7088	29.2969	59.5458	29.2969	59.7968	29.2969	59.4728	29.2969	59.9543	29.2969	59.3886	29.2969	60.2208	29.2969	59.3035	29.2969	60.6235	29.2969	59.2335	29.2969	61.1631	29.2969	59.1995	29.2969	61.8072	29.2969	59.2246	29.2969	62.4996	29.2969	59.3312	29.2969	63.1768	29.2969	59.5359	29.2969	63.7815	29.2969	59.846	29.2969	64.2704	29.2969	60.2569	29.2969	64.6157	29.2969	60.7528	29.2969	64.8036	29.2969	61.3104	29.2969	64.8325	29.2969	61.9025	29.2969	64.7108	29.2969	62.5016	29.2969	64.4536	29.2969	63.081	29.2969	64.0811	29.2969	63.6156
30.7617	60.7656	30.7617	60.6846	30.7617	60.8804	30.7617	60.6174	30.7617	61.0579	30.7617	60.554	30.7617	61.3305	30.7617	60.4938	30.7617	61.7244	30.7617	60.4439	30.7617	62.247	30.7617	60.4181	30.7617	62.8799	30.7617	60.4345	30.7617	63.5812	30.7617	60.5133	30.7617	64.2967	30.7617	60.6733	30.7617	64.9715	30.7617	60.9278	30.7617	65.5588	30.7617	61.2812	30.7617	66.0234	30.7617	61.7277	30.7617	66.3427	30.7617	62.252	30.7617	66.5057	30.7617	62.8326	30.7617	66.5116	30.7617	63.4445	30.7617	66.3684	30.7617	64.0621	30.7617	66.0909	30.7617	64.6601	30.7617	65.6985	30.7617	65.2137
32.2266	63.3699	32.2266	63.2729	32.2266	63.5026	32.2266	63.1984	32.2266	63.6886	32.2266	63.1393	32.2266	63.9473	32.2266	63.0946	32.2266	64.294	32.2266	63.0686	32.2266	64.7335	32.2266	63.07	32.2266	65.2547	32.2266	63.1109	32.2266	65.8309	32.2266	63.2047	32.2266	66.4238	32.2266	63.3638	32.2266	66.9909	32.2266	63.5972	32.2266	67.4926	32.2266	63.9078	32.2266	67.8965	32.2266	64.2917	32.2266	68.18	32.2266	64.7382	32.2266	68.3307	32.2266	65.231	32.2266	68.3461	32.2266	65.7507	32.2266	68.2318	32.2266	66.276	32.2266	68.0004	32.2266	66.7853	32.2266	67.6688	32.2266	67.2567
33.6914	65.2922	33.6914	65.1712	33.6914	65.4459	33.6914	65.0737	33.6914	65.6447	33.6914	64.995	33.6914	65.9017	33.6914	64.9348	33.6914	66.2274	33.6914	64.8969	33.6914	66.6247	33.6914	64.8887	33.6914	67.0852	33.6914	64.9199	33.6914	67.5885	33.6914	65.0012	33.6914	68.1043	33.6914	65.1425	33.6914	68.5973	33.6914	65.3509	33.6914	69.0333	33.6914	65.6288	33.6914	69.3827	33.6914	65.9733	33.6914	69.6242	33.6914	66.3756	33.6914	69.7455	33.6914	66.8223	33.6914	69.7435	33.6914	67.2964	33.6914	69.6234	33.6914	67.7791	33.6914	69.3968	33.6914	68.2508	33.6914	69.0797	33.6914	68.6911
35.1562	67.5304	35.1562	67.4257	35.1562	67.6559	35.1562	67.335	35.1562	67.8122	35.1562	67.2557	35.1562	68.0117	35.1562	67.1887	35.1562	68.2658	35.1562	67.1385	35.1562	68.5809	35.1562	67.1121	35.1562	68.9547	35.1562	67.1184	35.1562	69.3736	35.1562	67.1676	35.1562	69.8135	35.1562	67.2689	35.1562	70.2436	35.1562	67.4297	35.1562	70.6314	35.1562	67.6539	35.1562	70.9478	35.1562	67.9405	35.1562	71.1707	35.1562	68.2832	35.1562	71.2862	35.1562	68.6711	35.1562	71.2897	35.1562	69.0892	35.1562	71.1847	35.1562	69.52	35.1562	70.9815	35.1562	69.9444	35.1562	70.6948	35.1562	70.3427
36.6211	68.6599	36.6211	68.5579	36.6211	68.7865	36.6211	68.4741	36.6211	68.9472	36.6211	68.4055	36.6211	69.1525	36.6211	68.3522	36.6211	69.4116	36.6211	68.3175	36.6211	69.7289	36.6211	68.307	36.6211	70.1005	36.6211	68.3282	36.6211	70.5123	36.6211	68.3893	36.6211	70.9411	36.6211	68.4981	36.6211	71.3576	36.6211	68.6608	36.6211	71.7314	36.6211	68.8807	36.6211	72.0352	36.6211	69.157	36.6211	72.2479	36.6211	69.4843	36.6211	72.3569	36.6211	69.8531	36.6211	72.3579	36.6211	70.2502	36.6211	72.2549	36.6211	70.6597	36.6211	72.058	36.6211	71.0639	36.6211	71.782	36.6211	71.4444
38.0859	70.0222	38.0859	69.9045	38.0859	70.1625	38.0859	69.8046	38.0859	70.3326	38.0859	69.7206	38.0859	70.5408	38.0859	69.6533	38.0859	70.7944	38.0859	69.6058	38.0859	71.097	38.0859	69.5835	38.0859	71.4451	38.0859	69.5929	38.0859	71.8265	38.0859	69.6415	38.0859	72.2209	38.0859	69.7362	38.0859	72.602	38.0859	69.8828	38.0859	72.9421	38.0859	70.0846	38.0859	73.2156	38.0859	70.3412	38.0859	73.4026	38.0859	70.6485	38.0859	73.4906	38.0859	70.9982	38.0859	73.4757	38.0859	71.3782	38.0859	73.3613	38.0859	71.7738	38.0859	73.1574	38.0859	72.168	38.0859	72.8787	38.0859	72.5426
39.5508	71.2603	39.5508	71.1516	39.5508	71.3926	39.5508	71.0611	39.5508	71.5561	39.5508	70.9865	39.5508	71.7594	39.5508	70.9284	39.5508	72.0095	39.5508	70.89	39.5508	72.309	39.5508	70.8764	39.5508	72.6533	39.5508	70.8941	39.5508	73.0294	39.5508	70.9499	39.5508	73.4167	39.5508	71.0504	39.5508	73.7899	39.5508	71.2004	39.5508	74.1225	39.5508	71.4027	39.5508	74.3903	39.5508	71.6564	39.5508	74.5748	39.5508	71.9573	39.5508	74.6643	39.5508	72.2971	39.5508	74.655	39.5508	72.6642	39.5508	74.5505	39.5508	73.0445	39.5508	74.36	39.5508	73.4218	39.5508	74.0973	39.5508	73.7787
41.0156	72.3441	41.0156	72.2089	41.0156	72.513	41.0156	72.1043	41.0156	72.719	41.0156	72.0285	41.0156	72.9653	41.0156	71.9813	41.0156	73.2525	41.0156	71.9636	41.0156	73.5777	41.0156	71.9778	41.0156	73.933	41.0156	72.0272	41.0156	74.305	41.0156	72.1151	41.0156	74.6754	41.0156	72.2449	41.0156	75.0231	41.0156	72.4186	41.0156	75.3263	41.0156	72.6369	41.0156	75.5654	41.0156	72.8979	41.0156	75.7252	41.0156	73.1971	41.0156	75.7965	41.0156	73.5275	41.0156	75.7769	41.0156	73.8792	41.0156	75.6702	41.0156	74.2401	41.0156	75.4852	41.0156	74.5964	41.0156	75.2346	41.0156	74.9331
42.4805	73.7499	42.4805	73.6199	42.4805	73.9077	42.4805	73.5152	42.4805	74.0961	42.4805	73.4344	42.4805	74.3175	42.4805	73.3775	42.4805	74.5728	42.4805	73.3455	42.4805	74.8597	42.4805	73.3407	42.4805	75.1715	42.4805	73.3659	42.4805	75.497	42.4805	73.4248	42.4805	75.8203	42.4805	73.5208	42.4805	76.1227	42.4805	73.6567	42.4805	76.3845	42.4805	73.8341	42.4805	76.5877	42.4805	74.0528	42.4805	76.7178	42.4805	74.3101	42.4805	76.7664	42.4805	74.6006	42.4805	76.731	42.4805	74.9159	42.4805	76.6155	42.4805	75.2454	42.4805	76.4287	42.4805	75.5763	42.4805	76.1833	42.4805	75.894
43.9453	74.8007	43.9453	74.6807	43.9453	74.9466	43.9453	74.5845	43.9453	75.121	43.9453	74.5104	43.9453	75.326	43.9453	74.4581	43.9453	75.5619	43.9453	74.4283	43.9453	75.8263	43.9453	74.423	43.9453	76.1131	43.9453	74.445	43.9453	76.4122	43.9453	74.4976	43.9453	76.7093	43.9453	74.5843	43.9453	76.9873	43.9453	74.708	43.9453	77.2281	43.9453	74.8702	43.9453	77.415	43.9453	75.071	43.9453	77.5347	43.9453	75.3078	43.9453	77.5792	43.9453	75.5756	43.9453	77.5461	43.9453	75.8669	43.9453	77.439	43.9453	76.1715	43.9453	77.2661	43.9453	76.4775	43.9453	77.0391	43.9453	76.7714
45.4102	75.6466	45.4102	75.5244	45.4102	75.7948	45.4102	75.4261	45.4102	75.9708	45.4102	75.3502	45.4102	76.1759	45.4102	75.2964	45.4102	76.4099	45.4102	75.2652	45.4102	76.6696	45.4102	75.2584	45.4102	76.9489	45.4102	75.2785	45.4102	77.2377	45.4102	75.3286	45.4102	77.5224	45.4102	75.4118	45.4102	77.787	45.4102	75.5308	45.4102	78.0145	45.4102	75.687	45.4102	78.1891	45.4102	75.8803	45.4102	78.2985	45.4102	76.1085	45.4102	78.335	45.4102	76.3668	45.4102	78.2968	45.4102	76.6482	45.4102	78.1873	45.4102	76.9434	45.4102	78.0147	45.4102	77.2409	45.4102	77.7904	45.4102	77.5278
46.875	76.407	46.875	76.2709	46.875	76.5783	46.875	76.1696	46.875	76.7842	46.875	76.1019	46.875	77.0219	46.875	76.0662	46.875	77.2868	46.875	76.0614	46.875	77.5722	46.875	76.0871	46.875	77.8692	46.875	76.1434	46.875	78.1667	46.875	76.2307	46.875	78.4519	46.875	76.3499	46.875	78.711	46.875	76.5011	46.875	78.93	46.875	76.6839	46.875	79.0964	46.875	76.8967	46.875	79.2006	46.875	77.1364	46.875	79.2369	46.875	77.398	46.875	79.2044	46.875	77.6749	46.875	79.1067	46.875	77.9585	46.875	78.9509	46.875	78.2391	46.875	78.7469	46.875	78.5058
48.3398	77.2856	48.3398	77.1334	48.3398	77.4593	48.3398	77.0045	48.3398	77.6529	48.3398	76.9004	48.3398	77.8642	48.3398	76.8226	48.3398	78.0903	48.3398	76.7726	48.3398	78.3273	48.3398	76.7518	48.3398	78.5694	48.3398	76.7616	48.3398	78.8091	48.3398	76.8031	48.3398	79.0362	48.3398	76.8774	48.3398	79.239	48.3398	76.985	48.3398	79.4053	48.3398	77.1255	48.3398	79.5233	48.3398	77.298	48.3398	79.5841	48.3398	77.5	48.3398	79.5825	48.3398	77.7278	48.3398	79.5179	48.3398	77.9757	48.3398	79.3945	48.3398	78.2369	48.3398	79.2203	48.3398	78.5025	48.3398	79.0057	48.3398	78.7625
51.2695	78.5683	51.2695	78.4246	51.2695	78.7303	51.2695	78.3009	51.2695	78.909	51.2695	78.1986	51.2695	79.1019	51.2695	78.1188	51.2695	79.3061	51.2695	78.0629	51.2695	79.5174	51.2695	78.0321	51.2695	79.7303	51.2695	78.0273	51.2695	79.9375	51.2695	78.0498	51.2695	80.1301	51.2695	78.1004	51.2695	80.298	51.2695	78.1798	51.2695	80.4306	51.2695	78.2883	51.2695	80.518	51.2695	78.4257	51.2695	80.5528	51.2695	78.591	51.2695	80.5307	51.2695	78.7821	51.2695	80.452	51.2695	78.9955	51.2695	80.321	51.2695	79.2258	51.2695	80.1459	51.2695	79.4658	51.2695	79.9371	51.2695	79.7065
52.7344	79.0927	52.7344	78.951	52.7344	79.2509	52.7344	78.8273	52.7344	79.4237	52.7344	78.7228	52.7344	79.6089	52.7344	78.6389	52.7344	79.8034	52.7344	78.5769	52.7344	80.0032	52.7344	78.538	52.7344	80.2028	52.7344	78.5235	52.7344	80.3953	52.7344	78.5349	52.7344	80.5723	52.7344	78.5734	52.7344	80.7244	52.7344	78.6401	52.7344	80.8418	52.7344	78.7357	52.7344	80.9158	52.7344	78.8607	52.7344	80.9396	52.7344	79.0143	52.7344	80.9096	52.7344	79.1947	52.7344	80.8262	52.7344	79.3986	52.7344	80.6936	52.7344	79.6206	52.7344	80.5195	52.7344	79.8535	52.7344	80.3139	52.7344	80.0881
54.1992	79.4594	54.1992	79.3154	54.1992	79.6202	54.1992	79.1902	54.1992	79.7953	54.1992	79.0854	54.1992	79.9817	54.1992	79.0024	54.1992	80.1753	54.1992	78.9422	54.1992	80.3715	54.1992	78.9059	54.1992	80.5644	54.1992	78.8944	54.1992	80.7472	54.1992	78.9086	54.1992	80.9119	54.1992	78.9492	54.1992	81.0501	54.1992	79.0167	54.1992	81.1535	54.1992	79.1116	54.1992	81.2146	54.1992	79.2336	54.1992	81.2279	54.1992	79.3818	54.1992	81.1911	54.1992	79.5543	54.1992	81.1051	54.1992	79.7478	54.1992	80.9745	54.1992	79.9574	54.1992	80.8067	54.1992	80.1768	54.1992	80.6111	54.1992	80.3977
55.6641	79.7392	55.6641	79.5934	55.6641	79.9025	55.6641	79.4678	55.6641	80.0802	55.6641	79.3644	55.6641	80.2682	55.6641	79.2845	55.6641	80.4618	55.6641	79.2289	55.6641	80.6558	55.6641	79.1982	55.6641	80.8442	55.6641	79.1927	55.6641	81.0204	55.6641	79.2125	55.6641	81.1771	55.6641	79.2578	55.6641	81.3067	55.6641	79.3287	55.6641	81.4017	55.6641	79.4249	55.6641	81.4557	55.6641	79.546	55.6641	81.4642	55.6641	79.6909	55.6641	81.4252	55.6641	79.8578	55.6641	81.3403	55.6641	80.0436	55.6641	81.2138	55.6641	80.2439	55.6641	81.0528	55.6641	80.4528	55.6641	80.8661	55.6641	80.663
58.5938	80.277	58.5938	80.13	58.5938	80.4389	58.5938	80.0004	58.5938	80.6123	58.5938	79.8905	58.5938	80.7932	58.5938	79.8017	58.5938	80.977	58.5938	79.7353	58.5938	81.1584	58.5938	79.6921	58.5938	81.3314	58.5938	79.6726	58.5938	81.4896	58.5938	79.6775	58.5938	81.6261	58.5938	79.7071	58.5938	81.734	58.5938	79.7617	58.5938	81.807	58.5938	79.8412	58.5938	81.8397	58.5938	79.9457	58.5938	81.8286	58.5938	80.0743	58.5938	81.773	58.5938	80.2256	58.5938	81.675	58.5938	80.397	58.5938	81.5396	58.5938	80.5849	58.5938	81.374	58.5938	80.7838	58.5938	81.1868	58.5938	80.9871
60.0586	80.5281	60.0586	80.3794	60.0586	80.6911	60.0586	80.2481	60.0586	80.8648	60.0586	80.1366	60.0586	81.0446	60.0586	80.0467	60.0586	81.2258	60.0586	79.9796	60.0586	81.4026	60.0586	79.9361	60.0586	81.5691	60.0586	79.9165	60.0586	81.7191	60.0586	79.9211	60.0586	81.8458	60.0586	79.9498	60.0586	81.9432	60.0586	80.0024	60.0586	82.0053	60.0586	80.0787	60.0586	82.0278	60.0586	80.1783	60.0586	82.008	60.0586	80.3004	60.0586	81.9459	60.0586	80.4437	60.0586	81.8439	60.0586	80.6061	60.0586	81.7075	60.0586	80.7843	60.0586	81.5438	60.0586	80.9737	60.0586	81.3612	60.0586	81.1685
62.9883	81.105	62.9883	80.9613	62.9883	81.2626	62.9883	80.8346	62.9883	81.4302	62.9883	80.7271	62.9883	81.6032	62.9883	80.6404	62.9883	81.7761	62.9883	80.5754	62.9883	81.9429	62.9883	80.5326	62.9883	82.0976	62.9883	80.5122	62.9883	82.2339	62.9883	80.5143	62.9883	82.3458	62.9883	80.5387	62.9883	82.428	62.9883	80.5854	62.9883	82.4758	62.9883	80.654	62.9883	82.486	62.9883	80.7442	62.9883	82.4573	62.9883	80.8553	62.9883	82.3905	62.9883	80.9862	62.9883	82.2886	62.9883	81.1349	62.9883	82.1568	62.9883	81.2985	62.9883	82.0019	62.9883	81.4727	62.9883	81.8312	62.9883	81.6524
64.4531	81.2595	64.4531	81.1112	64.4531	81.4214	64.4531	80.9802	64.4531	81.5925	64.4531	80.8692	64.4531	81.7676	64.4531	80.78	64.4531	81.9408	64.4531	80.7137	64.4531	82.106	64.4531	80.6709	64.4531	82.2571	64.4531	80.6517	64.4531	82.3879	64.4531	80.6556	64.4531	82.493	64.4531	80.6824	64.4531	82.5674	64.4531	80.7312	64.4531	82.6073	64.4531	80.8015	64.4531	82.6102	64.4531	80.8924	64.4531	82.5754	64.4531	81.0028	64.4531	82.5043	64.4531	81.1315	64.4531	82.4004	64.4531	81.2764	64.4531	82.2689	64.4531	81.4348	64.4531	82.1165	64.4531	81.6032	64.4531	81.9501	64.4531	81.7768
67.3828	81.4781	67.3828	81.3269	67.3828	81.6408	67.3828	81.1913	67.3828	81.81	67.3828	81.0748	67.3828	81.9802	67.3828	80.9797	67.3828	82.1456	67.3828	80.9077	67.3828	82.3	67.3828	80.8596	67.3828	82.4377	67.3828	80.8354	67.3828	82.553	67.3828	80.8348	67.3828	82.6411	67.3828	80.8569	67.3828	82.698	67.3828	80.9009	67.3828	82.7207	67.3828	80.9655	67.3828	82.7081	67.3828	81.0495	67.3828	82.6604	67.3828	81.1516	67.3828	82.5799	67.3828	81.2703	67.3828	82.4709	67.3828	81.4038	67.3828	82.3387	67.3828	81.55	67.3828	82.1898	67.3828	81.7058	67.3828	82.0307	67.3828	81.8676
